Fp1,Fp2,F7,F3,Fz,F4,F8,FT7,FC3,FCz,FC4,FT8,T3,C3,Cz,C4,T4,TP7,CP3,CPz,CP4,TP8,T5,P3,Pz,P4,T6,O1,Oz,O2,A1,A2
-6.733935832977294922e+00,-3.361839056015014648e+00,-3.827487230300903320e+00,-3.029694318771362305e+00,-1.022358775138854980e+00,-3.123346805572509766e+00,2.738213539123535156e+00,7.306602001190185547e+00,1.630875587463378906e+00,-3.071543455123901367e+00,-2.154812335968017578e+00,-1.409873008728027344e+00,-8.425046801567077637e-01,4.883554577827453613e-01,6.577138900756835938e-01,-3.701212167739868164e+00,-4.661708354949951172e+00,-8.537787437438964844e+00,-5.961122035980224609e+00,-6.347872257232666016e+00,-1.544312667846679688e+01,-1.875918388366699219e+01,-2.013772964477539062e+01,-2.255351829528808594e+01,-1.589599800109863281e+01,-5.744771480560302734e+00,-6.179115772247314453e+00,-1.390929985046386719e+01,-7.961770057678222656e+00,-3.302189826965332031e+00,-5.029218196868896484e+00,-2.480519771575927734e+00
5.100183963775634766e+00,9.396133422851562500e+00,1.331703472137451172e+01,1.411111354827880859e+01,1.342508506774902344e+01,1.293055820465087891e+01,1.121841049194335938e+01,1.082350349426269531e+01,1.178604221343994141e+01,1.108913898468017578e+01,6.937510967254638672e+00,6.820409774780273438e+00,9.961748123168945312e+00,7.316266059875488281e+00,1.671406626701354980e+00,1.268190145492553711e+00,5.681659221649169922e+00,-1.763318106532096863e-02,-1.865911483764648438e+00,-2.258063793182373047e+00,-6.497555255889892578e+00,-3.796975612640380859e+00,-5.894255638122558594e+00,-8.437535285949707031e+00,-7.507398128509521484e+00,4.039741516113281250e+00,5.852566719055175781e+00,5.329912662506103516e+00,1.043222045898437500e+01,1.100376796722412109e+01,6.354664325714111328e+00,1.520762920379638672e+01
1.192327213287353516e+01,1.057722949981689453e+01,1.134900760650634766e+01,1.462761211395263672e+01,1.645728683471679688e+01,1.851663398742675781e+01,1.177154064178466797e+01,6.026175975799560547e+00,1.022535705566406250e+01,6.647366046905517578e+00,3.288253784179687500e+00,2.735996961593627930e+00,6.572400569915771484e+00,2.945030450820922852e+00,3.648411989212036133e+00,7.202293872833251953e+00,1.071524143218994141e+01,6.561421394348144531e+00,5.381644725799560547e+00,1.382473111152648926e+00,-2.902489662170410156e+00,-5.031756162643432617e-01,5.191082358360290527e-01,1.031736564636230469e+01,9.574721336364746094e+00,1.484406471252441406e+01,9.501653671264648438e+00,1.446813106536865234e+01,1.593724727630615234e+01,1.781276512145996094e+01,1.649594879150390625e+01,5.517392158508300781e+00
9.064621925354003906e+00,3.639597654342651367e+00,-5.664335727691650391e+00,-5.980845451354980469e+00,1.487506031990051270e+00,7.534346580505371094e+00,-3.604954719543457031e+00,-8.858520507812500000e+00,-6.293221473693847656e+00,-3.124027729034423828e+00,-1.550400257110595703e-01,5.562983036041259766e+00,1.540150195360183716e-01,5.775373578071594238e-01,7.163243770599365234e+00,1.032416725158691406e+01,8.883417129516601562e+00,6.269988059997558594e+00,5.370897293090820312e+00,-1.499717593193054199e+00,-4.539009094238281250e+00,1.885297060012817383e+00,7.331460475921630859e+00,9.932176589965820312e+00,3.708304166793823242e+00,7.252000808715820312e+00,8.744239807128906250e+00,1.205708408355712891e+01,8.081226348876953125e+00,5.661204338073730469e+00,7.292878627777099609e+00,-8.422518730163574219e+00
2.069599151611328125e+00,4.436088562011718750e+00,2.974238634109497070e+00,-2.103105783462524414e+00,-2.011922359466552734e+00,2.976971149444580078e+00,-1.982469439506530762e+00,-5.276318073272705078e+00,-5.227632999420166016e+00,6.141537666320800781e+00,9.200859069824218750e+00,1.274340343475341797e+01,4.980800628662109375e+00,5.347607612609863281e+00,5.477380275726318359e+00,6.123342037200927734e+00,4.419089317321777344e+00,2.640986442565917969e+00,-8.641501516103744507e-02,1.275980234146118164e+00,5.241429805755615234e+00,1.005988979339599609e+01,1.290560150146484375e+01,4.660535335540771484e+00,-4.108072280883789062e+00,-2.136156797409057617e+00,8.469487190246582031e+00,1.224781417846679688e+01,9.453604698181152344e+00,-1.161602020263671875e+00,-2.180249214172363281e+00,2.655110359191894531e+00
-4.041984081268310547e+00,6.659042358398437500e+00,1.440639781951904297e+01,1.433756065368652344e+01,9.406937599182128906e+00,7.464018821716308594e+00,1.110755348205566406e+01,9.376648902893066406e+00,9.223438262939453125e+00,7.573350906372070312e+00,5.018506526947021484e+00,2.953694760799407959e-01,3.528947830200195312e+00,-1.815312355756759644e-01,-6.938908576965332031e+00,-4.620235443115234375e+00,-3.919568777084350586e+00,3.284510672092437744e-01,-2.809623718261718750e+00,5.960565090179443359e+00,1.150756645202636719e+01,9.490671157836914062e+00,7.163375854492187500e+00,6.258505344390869141e+00,6.176133155822753906e+00,2.897129356861114502e-01,-1.835006773471832275e-01,4.902609825134277344e+00,8.970872879028320312e+00,2.499368906021118164e+00,4.709616184234619141e+00,1.376653861999511719e+01
-5.162258148193359375e+00,4.760744571685791016e+00,5.576139926910400391e+00,1.106527233123779297e+01,1.335354423522949219e+01,7.349124431610107422e+00,6.486798286437988281e+00,1.002406597137451172e+01,6.995550155639648438e+00,-2.978848218917846680e+00,-8.201518058776855469e+00,-8.487632751464843750e+00,-1.923390865325927734e+00,-4.797213554382324219e+00,-1.003836536407470703e+01,-7.493784904479980469e+00,-5.610079765319824219e+00,3.012084245681762695e+00,1.179474711418151855e+00,4.029766559600830078e+00,7.253272056579589844e+00,1.021393966674804688e+01,1.040209293365478516e+01,1.318187475204467773e+00,1.999903678894042969e+00,-3.343643188476562500e+00,1.434107780456542969e+00,2.201597690582275391e+00,3.259392976760864258e+00,2.857535362243652344e+00,8.664951324462890625e+00,7.232487201690673828e+00
-5.915976762771606445e-01,2.833014965057373047e+00,-3.960243463516235352e-01,2.263661861419677734e+00,6.662445545196533203e+00,6.496126174926757812e+00,-3.099973678588867188e+00,-2.374802112579345703e+00,-8.860370635986328125e+00,-2.780153751373291016e+00,-2.092982053756713867e+00,7.276372909545898438e+00,4.337976932525634766e+00,7.027365207672119141e+00,4.893520355224609375e+00,1.980669260025024414e+00,4.158004283905029297e+00,7.431152820587158203e+00,6.348310947418212891e+00,-8.692135810852050781e-01,1.077289938926696777e+00,9.300861358642578125e+00,1.634933090209960938e+01,-6.967698574066162109e+00,-1.547712898254394531e+01,-1.296492958068847656e+01,1.033436203002929688e+01,9.992254257202148438e+00,5.726341724395751953e+00,1.830014109611511230e+00,1.441923737525939941e+00,-3.564953327178955078e+00
-1.234965920448303223e+00,-2.402158021926879883e+00,-7.571225166320800781e-01,-2.159742116928100586e+00,-4.221707344055175781e+00,-2.084835529327392578e+00,-4.752573490142822266e+00,-8.598714828491210938e+00,-1.170266246795654297e+01,-2.574318885803222656e+00,1.477293252944946289e+00,6.675135135650634766e+00,1.673248529434204102e+00,6.161505699157714844e+00,7.579025268554687500e+00,4.748898506164550781e+00,5.673029899597167969e+00,3.837258577346801758e+00,3.540703535079956055e+00,-7.219382286071777344e+00,-6.302600860595703125e+00,-5.122474431991577148e-01,4.642195701599121094e+00,-1.420922756195068359e+00,-1.040402030944824219e+01,-1.029617500305175781e+01,-2.324135065078735352e+00,3.719177007675170898e+00,1.955000281333923340e+00,-1.613801240921020508e+00,-6.167047023773193359e+00,-9.226583480834960938e+00
-3.759784460067749023e+00,-3.223464250564575195e+00,-1.594505667686462402e+00,-2.275073289871215820e+00,-6.352801322937011719e+00,-9.678385734558105469e+00,-6.254010677337646484e+00,-5.076349258422851562e+00,6.520114094018936157e-02,-8.979682326316833496e-01,-3.824578046798706055e+00,-9.596569061279296875e+00,-8.804022789001464844e+00,-1.033365058898925781e+01,-6.385511398315429688e+00,-2.871181964874267578e+00,-3.245434999465942383e+00,-4.024553775787353516e+00,-2.021325588226318359e+00,-7.194407939910888672e+00,-8.949948310852050781e+00,-7.658755302429199219e+00,-8.281684875488281250e+00,3.542937040328979492e+00,2.177282571792602539e+00,-1.163474559783935547e+00,-1.465675830841064453e+01,-8.300296783447265625e+00,-5.555816173553466797e+00,-3.408162832260131836e+00,-5.478722572326660156e+00,-2.571567773818969727e+00
-6.519142985343933105e-01,7.471347808837890625e+00,6.728734016418457031e+00,8.060744285583496094e+00,6.583692550659179688e+00,2.159724235534667969e+00,1.120954230427742004e-01,2.465115308761596680e+00,1.014568805694580078e+01,6.824054718017578125e+00,3.969077825546264648e+00,-7.625322937965393066e-01,-3.071205317974090576e-01,-5.875712394714355469e+00,-4.791676998138427734e+00,-1.980911493301391602e-01,-7.767601311206817627e-02,-2.729620456695556641e+00,-1.362895488739013672e+00,-1.262335851788520813e-02,-3.811748266220092773e+00,-4.311582565307617188e+00,-2.670761823654174805e+00,-3.907872915267944336e+00,-5.386345863342285156e+00,-4.784401953220367432e-01,1.374365091323852539e+00,8.298774361610412598e-01,4.835683822631835938e+00,4.789963245391845703e+00,1.204385161399841309e+00,1.168677043914794922e+01
6.547023296356201172e+00,1.196338367462158203e+01,1.079537010192871094e+01,1.272535800933837891e+01,1.304993534088134766e+01,1.698376655578613281e+01,1.759548759460449219e+01,1.282213592529296875e+01,2.581159591674804688e+00,2.593422174453735352e+00,1.310494518280029297e+01,2.008877182006835938e+01,1.630540275573730469e+01,1.247027206420898438e+01,9.658492088317871094e+00,8.912918090820312500e+00,7.379900932312011719e+00,9.507813453674316406e-01,1.685148477554321289e+00,3.046735763549804688e+00,-2.485956907272338867e+00,-3.159672260284423828e+00,-3.670772910118103027e-02,-4.268299102783203125e+00,-6.206943035125732422e+00,2.956021070480346680e+00,1.030082702636718750e+01,7.939598083496093750e+00,1.002699375152587891e+01,1.111450672149658203e+01,9.370287895202636719e+00,1.148196125030517578e+01
1.223393154144287109e+01,9.226744651794433594e+00,3.836804389953613281e+00,5.616246700286865234e+00,8.647787094116210938e+00,1.485460090637207031e+01,1.955336189270019531e+01,1.612818336486816406e+01,1.461925625801086426e+00,2.726072549819946289e+00,1.199182891845703125e+01,2.067543411254882812e+01,1.472736454010009766e+01,1.226347732543945312e+01,8.380983352661132812e+00,4.153097629547119141e+00,9.764285087585449219e-01,-2.152276992797851562e+00,3.502795457839965820e+00,6.714657783508300781e+00,-1.223150253295898438e+00,-6.153313636779785156e+00,-7.800188064575195312e+00,3.256248712539672852e+00,7.382455825805664062e+00,1.099950218200683594e+01,-2.302608728408813477e+00,-2.703034400939941406e+00,1.376538515090942383e+00,7.184738636016845703e+00,8.660662651062011719e+00,3.691450595855712891e+00
9.839536666870117188e+00,2.480618000030517578e+00,-1.652489185333251953e+00,2.229821681976318359e+00,3.235591650009155273e+00,-1.549063324928283691e+00,-5.947572231292724609e+00,-2.634477376937866211e+00,7.985798358917236328e+00,9.447613716125488281e+00,2.985226213932037354e-01,-2.830737590789794922e+00,-2.138651847839355469e+00,-5.141536235809326172e+00,-1.043208694458007812e+01,-1.138571453094482422e+01,-1.300668048858642578e+01,-1.005222511291503906e+01,-4.057121753692626953e+00,4.865001678466796875e+00,-2.892125368118286133e+00,-8.840494155883789062e+00,-9.886614799499511719e+00,-2.471225976943969727e+00,-1.159241914749145508e+00,4.022884845733642578e+00,-2.004923582077026367e+00,-5.159720897674560547e+00,-2.165537118911743164e+00,-1.430548667907714844e+00,-3.447923183441162109e+00,-1.395319581031799316e+00
-4.824069976806640625e+00,-1.397948169708251953e+01,-9.566679954528808594e+00,-5.818558216094970703e+00,-9.383295059204101562e+00,-1.581717205047607422e+01,-1.943849754333496094e+01,-1.540728950500488281e+01,1.536760777235031128e-01,1.117329955101013184e+00,-1.073761463165283203e+01,-2.118492507934570312e+01,-1.548385524749755859e+01,-1.544918251037597656e+01,-1.988650512695312500e+01,-2.059283447265625000e+01,-2.300605201721191406e+01,-2.022382545471191406e+01,-1.800707054138183594e+01,-1.226134395599365234e+01,-1.671287155151367188e+01,-1.948780059814453125e+01,-1.564318084716796875e+01,-1.736289215087890625e+01,-1.812719345092773438e+01,-1.333401203155517578e+01,-3.532621622085571289e+00,-7.779743671417236328e+00,-1.085295677185058594e+01,-1.080849361419677734e+01,-1.194373416900634766e+01,-1.777445030212402344e+01
-1.616169357299804688e+01,-1.956234359741210938e+01,-1.380325412750244141e+01,-1.555931091308593750e+01,-1.766928482055664062e+01,-2.199890327453613281e+01,-1.669214057922363281e+01,-9.776379585266113281e+00,-7.694778442382812500e+00,-6.814591884613037109e+00,-9.893448829650878906e+00,-1.327071666717529297e+01,-1.271282482147216797e+01,-8.084399223327636719e+00,-9.337741851806640625e+00,-1.342337703704833984e+01,-1.798172760009765625e+01,-1.793202018737792969e+01,-1.387227821350097656e+01,-1.214431381225585938e+01,-1.244503974914550781e+01,-1.545527362823486328e+01,-1.676439857482910156e+01,-8.112706184387207031e+00,-6.942085266113281250e+00,-8.497820854187011719e+00,-1.581580066680908203e+01,-1.607845115661621094e+01,-1.695419502258300781e+01,-1.298526382446289062e+01,-1.035181903839111328e+01,-2.435416793823242188e+01
-3.454369544982910156e+00,-4.964174747467041016e+00,-1.491713762283325195e+00,-5.557865142822265625e+00,-6.270387172698974609e+00,-9.162870407104492188e+00,-3.600918769836425781e+00,2.850246667861938477e+00,1.357087135314941406e+00,3.520989418029785156e-01,-9.274857640266418457e-01,1.634198188781738281e+00,-1.452184319496154785e-01,2.369313240051269531e+00,3.216148614883422852e+00,-2.727397084236145020e-01,-2.657666683197021484e+00,-2.283043622970581055e+00,2.182617425918579102e+00,8.124431610107421875e+00,1.295852279663085938e+01,8.297954559326171875e+00,2.693215608596801758e+00,1.575045204162597656e+01,1.151633548736572266e+01,6.878567218780517578e+00,-7.272764682769775391e+00,-4.682362556457519531e+00,-2.430609703063964844e+00,-4.922121524810791016e+00,-3.865347146987915039e+00,-4.866012096405029297e+00
6.007287502288818359e-01,-6.374867439270019531e+00,-3.318633317947387695e+00,-4.314188957214355469e+00,-5.031077384948730469e+00,-7.761968612670898438e+00,-4.757350921630859375e+00,-1.595732450485229492e+00,2.061529636383056641e+00,2.568717002868652344e+00,-1.120144605636596680e+00,-5.120281696319580078e+00,-4.844617843627929688e+00,-2.346789360046386719e+00,-1.620698094367980957e+00,-3.110878944396972656e+00,-3.179472684860229492e+00,-2.253459453582763672e+00,-2.891067028045654297e+00,-2.328050136566162109e+00,4.694955825805664062e+00,5.614799022674560547e+00,6.993721961975097656e+00,6.546462059020996094e+00,2.130627393722534180e+00,-2.970398426055908203e+00,3.449774682521820068e-01,3.899607896804809570e+00,-1.997539639472961426e+00,-1.151003646850585938e+01,-1.170481777191162109e+01,-5.523090362548828125e+00
-1.325832653045654297e+01,-1.885353660583496094e+01,-2.032611846923828125e+01,-2.077195167541503906e+01,-1.826357078552246094e+01,-2.534478569030761719e+01,-2.936896133422851562e+01,-2.285462188720703125e+01,-6.131745815277099609e+00,-4.853796958923339844e+00,-1.474356079101562500e+01,-2.415380287170410156e+01,-1.931989669799804688e+01,-1.371814346313476562e+01,-9.590763092041015625e+00,-1.012405490875244141e+01,-1.201750850677490234e+01,-1.148721027374267578e+01,-1.548248577117919922e+01,-1.757618713378906250e+01,-1.290290832519531250e+01,-7.588806629180908203e+00,-4.024103164672851562e+00,-1.128226947784423828e+01,-1.325549221038818359e+01,-1.631207656860351562e+01,-1.186887073516845703e+01,-7.722586631774902344e+00,-1.520438480377197266e+01,-2.268834304809570312e+01,-2.685407447814941406e+01,-2.996985244750976562e+01
2.712484121322631836e+00,-6.517556190490722656e+00,-1.157935523986816406e+01,-1.233454132080078125e+01,-5.618557929992675781e+00,-4.996386528015136719e+00,-1.417165565490722656e+01,-1.347777462005615234e+01,-4.076605796813964844e+00,3.572347879409790039e+00,-7.122035026550292969e-01,-5.104679584503173828e+00,-6.992376804351806641e+00,-2.251435995101928711e+00,3.408455848693847656e+00,6.295459747314453125e+00,5.324995040893554688e+00,6.629714965820312500e+00,1.324132442474365234e+00,-4.925086021423339844e+00,3.467224121093750000e+00,1.067450046539306641e+01,7.469313621520996094e+00,2.351604938507080078e+00,-1.138554811477661133e+00,-6.316769123077392578e+00,-1.066739845275878906e+01,-5.460046291351318359e+00,1.008231759071350098e+00,-2.737163543701171875e+00,-1.268030548095703125e+01,-1.990733718872070312e+01
7.167269229888916016e+00,8.747413158416748047e-01,4.319612979888916016e+00,3.884309053421020508e+00,2.876529932022094727e+00,5.028165817260742188e+00,8.816965103149414062e+00,7.392521858215332031e+00,-5.396930217742919922e+00,3.223872900009155273e+00,5.463890075683593750e+00,1.072396850585937500e+01,4.517827510833740234e+00,6.762893676757812500e+00,1.171930599212646484e+01,1.210278415679931641e+01,1.550122451782226562e+01,1.556903171539306641e+01,1.383881473541259766e+01,1.180699157714843750e+01,1.441571712493896484e+01,1.364403533935546875e+01,1.123779201507568359e+01,4.338253498077392578e+00,4.068554401397705078e+00,2.341202259063720703e+00,-2.343993425369262695e+00,-2.479850053787231445e-01,2.771579504013061523e+00,2.840160369873046875e+00,3.637005567550659180e+00,9.666950225830078125e+00
-1.853893661499023438e+01,-1.698975563049316406e+01,-5.846915245056152344e+00,-7.666409969329833984e+00,-1.795951843261718750e+01,-2.058734130859375000e+01,-6.984958648681640625e+00,-2.898766040802001953e+00,-9.169466018676757812e+00,-1.102491760253906250e+01,-1.152532482147216797e+01,-7.376944065093994141e+00,-1.274437999725341797e+01,-5.735085487365722656e+00,-3.603724002838134766e+00,-7.303248405456542969e+00,-6.703746318817138672e+00,-4.559787273406982422e+00,1.198518574237823486e-01,8.313282728195190430e-01,-4.649944305419921875e+00,-1.440288352966308594e+01,-1.576838302612304688e+01,-1.970584678649902344e+01,-1.476810455322265625e+01,-1.104360485076904297e+01,-9.407771110534667969e+00,-1.612598228454589844e+01,-2.426277732849121094e+01,-1.763054656982421875e+01,-4.515601098537445068e-01,4.904490470886230469e+00
-1.734382057189941406e+01,-1.749544143676757812e+01,-1.755899238586425781e+01,-1.629730796813964844e+01,-1.615416526794433594e+01,-2.284589767456054688e+01,-2.270271301269531250e+01,-1.568879318237304688e+01,-1.876115560531616211e+00,-6.848359107971191406e+00,-9.134203910827636719e+00,-1.606056404113769531e+01,-1.401723861694335938e+01,-1.102321434020996094e+01,-1.225340652465820312e+01,-1.436250972747802734e+01,-1.491009330749511719e+01,-1.678558349609375000e+01,-1.463264274597167969e+01,-1.234123802185058594e+01,-1.188857364654541016e+01,-1.631887245178222656e+01,-1.527708816528320312e+01,-1.500622558593750000e+01,-1.050846672058105469e+01,-6.014466762542724609e+00,-4.774730205535888672e+00,-1.334840106964111328e+01,-1.905073738098144531e+01,-1.115979194641113281e+01,3.397484421730041504e-01,-1.034050941467285156e+01
9.889808654785156250e+00,2.942860603332519531e+00,-7.690396308898925781e+00,-5.836972713470458984e+00,3.610038042068481445e+00,7.043395996093750000e+00,-1.740153670310974121e+00,-6.444537162780761719e+00,2.532281398773193359e+00,8.642610549926757812e+00,1.333409214019775391e+01,7.524944782257080078e+00,9.416980743408203125e+00,3.926204681396484375e+00,2.198917388916015625e+00,3.326805114746093750e+00,6.465452194213867188e+00,2.807661890983581543e-01,-6.068655967712402344e+00,-2.906697094440460205e-01,3.975084781646728516e+00,7.003362178802490234e+00,7.123340129852294922e+00,1.114315128326416016e+01,1.137943935394287109e+01,1.039875698089599609e+01,8.691480636596679688e+00,1.015841770172119141e+01,1.019028186798095703e+01,1.247752857208251953e+01,9.577301979064941406e+00,5.772525787353515625e+00
1.660534095764160156e+01,1.185834217071533203e+01,8.911431312561035156e+00,2.900589704513549805e+00,3.730310797691345215e-01,7.194229602813720703e+00,7.603820800781250000e+00,1.067027091979980469e+00,-2.163095235824584961e+00,6.701261043548583984e+00,1.240796375274658203e+01,1.357974338531494141e+01,1.456215763092041016e+01,1.108202552795410156e+01,1.176107883453369141e+01,8.375387191772460938e+00,9.906507492065429688e+00,2.969240665435791016e+00,-7.126855254173278809e-01,-3.161578893661499023e+00,-5.970653533935546875e+00,-2.697914361953735352e+00,-1.456965327262878418e+00,1.147751140594482422e+01,1.195308685302734375e+01,1.316426467895507812e+01,3.029637336730957031e+00,8.627433776855468750e+00,7.377894878387451172e+00,8.763807296752929688e+00,1.228031349182128906e+01,2.446322059631347656e+01
-3.874792098999023438e+00,5.334768772125244141e+00,7.673532962799072266e+00,1.135117530822753906e+00,-4.928826808929443359e+00,-6.569652080535888672e+00,3.129152774810791016e+00,4.676844596862792969e+00,-1.835635662078857422e+00,-4.110407829284667969e+00,-5.975107192993164062e+00,-3.246892452239990234e+00,-3.578723430633544922e+00,-1.843286991119384766e+00,5.241933465003967285e-01,-3.739090919494628906e+00,-6.141905784606933594e+00,-1.082990741729736328e+01,-6.984561920166015625e+00,-1.209459972381591797e+01,-1.717928886413574219e+01,-2.114320182800292969e+01,-1.760834121704101562e+01,-1.042262935638427734e+01,-7.657378196716308594e+00,-2.814449310302734375e+00,-8.053438186645507812e+00,-8.011863708496093750e+00,-8.603356361389160156e+00,-2.791899681091308594e+00,8.886646032333374023e-01,6.243331909179687500e+00
-1.067195034027099609e+01,-4.414390563964843750e+00,-8.197867393493652344e+00,-7.329388141632080078e+00,-3.386992692947387695e+00,-3.491361618041992188e+00,1.212481260299682617e-01,4.034425914287567139e-01,-2.355255842208862305e+00,-7.930365562438964844e+00,-1.015403270721435547e+01,-1.362782096862792969e+01,-1.425757312774658203e+01,-1.273099613189697266e+01,-1.053760337829589844e+01,-1.097072219848632812e+01,-1.565326404571533203e+01,-1.906373214721679688e+01,-1.716164398193359375e+01,-1.758526229858398438e+01,-1.859863853454589844e+01,-2.041119003295898438e+01,-1.694865226745605469e+01,-1.825545120239257812e+01,-1.485788631439208984e+01,-1.090303802490234375e+01,-9.617110252380371094e+00,-1.229212093353271484e+01,-6.953645229339599609e+00,-3.533056735992431641e+00,-1.202928161621093750e+01,-2.359122085571289062e+01
-5.802230834960937500e+00,-2.737088203430175781e+00,-3.656684160232543945e+00,-6.014550209045410156e+00,-6.556030273437500000e+00,-4.626156330108642578e+00,-6.309658527374267578e+00,-7.889571189880371094e+00,-7.061302661895751953e+00,-6.563635468482971191e-01,-1.446789383888244629e+00,-7.461561203002929688e+00,-7.490906715393066406e+00,-3.920046329498291016e+00,-4.248062133789062500e+00,-8.464899063110351562e+00,-1.207093143463134766e+01,-9.867221832275390625e+00,-5.920542716979980469e+00,-4.891688346862792969e+00,-5.838926315307617188e+00,-5.727607727050781250e+00,-5.801156997680664062e+00,-7.059860825538635254e-01,5.116190314292907715e-01,1.295336961746215820e+00,-3.375882208347320557e-01,-3.246689736843109131e-01,-3.599750518798828125e+00,-1.903977632522583008e+00,1.227124452590942383e+00,-6.363513469696044922e+00
7.502939224243164062e+00,1.625369071960449219e+01,1.747396087646484375e+01,1.228622341156005859e+01,7.925487995147705078e+00,1.223761177062988281e+01,1.082176876068115234e+01,7.819077968597412109e+00,4.486581981182098389e-01,8.377718925476074219e+00,1.136973381042480469e+01,1.394083690643310547e+01,1.101817226409912109e+01,1.133739852905273438e+01,9.107648849487304688e+00,2.490972518920898438e+00,1.855906367301940918e+00,9.470949172973632812e+00,1.721030807495117188e+01,1.865922355651855469e+01,2.082069015502929688e+01,1.831335639953613281e+01,1.609518623352050781e+01,2.165250968933105469e+01,2.032317161560058594e+01,1.809877967834472656e+01,1.755032539367675781e+01,1.708208465576171875e+01,1.002340030670166016e+01,1.074946403503417969e+01,2.019957923889160156e+01,2.535608482360839844e+01
1.237948226928710938e+01,2.240990257263183594e+01,1.840790939331054688e+01,1.822987937927246094e+01,1.933076667785644531e+01,2.571035957336425781e+01,2.310434150695800781e+01,1.596230030059814453e+01,6.401030540466308594e+00,7.352438926696777344e+00,1.153543472290039062e+01,1.185678195953369141e+01,5.710846900939941406e+00,5.692178249359130859e+00,8.657535552978515625e+00,7.936160564422607422e+00,6.274152755737304688e+00,8.910802841186523438e+00,1.170808506011962891e+01,1.268667316436767578e+01,1.648355293273925781e+01,1.845695686340332031e+01,2.036898422241210938e+01,1.357081699371337891e+01,1.304923152923583984e+01,1.126718044281005859e+01,1.912343215942382812e+01,1.962198066711425781e+01,2.038887786865234375e+01,1.936978340148925781e+01,1.649522781372070312e+01,9.242470741271972656e+00
-5.728208065032958984e+00,-2.361683607101440430e+00,-4.937869548797607422e+00,-5.112905025482177734e+00,-3.333056688308715820e+00,1.424404025077819824e+00,-6.324121356010437012e-01,-5.095160007476806641e+00,-4.471332550048828125e+00,-4.354833602905273438e+00,-7.449694156646728516e+00,-1.745410537719726562e+01,-1.914113807678222656e+01,-1.302386951446533203e+01,-9.766866683959960938e+00,-8.876638412475585938e+00,-1.581604385375976562e+01,-1.583124351501464844e+01,-1.282489395141601562e+01,-1.241461086273193359e+01,-1.235574817657470703e+01,-8.727494239807128906e+00,-7.542593479156494141e+00,-1.356081128120422363e+00,4.669958949089050293e-01,-2.967449188232421875e+00,-6.375335216522216797e+00,-2.351864576339721680e+00,-4.741574525833129883e-01,3.291859626770019531e-01,-4.799317359924316406e+00,-1.674666023254394531e+01
-6.146666526794433594e+00,-3.837236166000366211e+00,4.888373315334320068e-01,-6.787480354309082031e+00,-1.278308868408203125e+01,-1.372080326080322266e+01,-1.500722789764404297e+01,-1.129162311553955078e+01,-6.384005546569824219e+00,-2.580394744873046875e+00,-6.075392246246337891e+00,-9.635518074035644531e+00,-9.764736175537109375e+00,-6.068178653717041016e+00,-3.631611108779907227e+00,-4.934369564056396484e+00,-9.056330680847167969e+00,-7.483381271362304688e+00,-4.874930381774902344e+00,-5.776118278503417969e+00,-5.908933639526367188e+00,-7.337579727172851562e+00,-7.003394603729248047e+00,1.205201244354248047e+01,1.520236492156982422e+01,7.182673931121826172e+00,-3.777359962463378906e+00,-2.757883310317993164e+00,-6.191895961761474609e+00,4.212938249111175537e-01,8.133749961853027344e+00,3.860468387603759766e+00
1.400995731353759766e+01,1.509446620941162109e+01,1.242393016815185547e+01,9.850397109985351562e+00,1.150585269927978516e+01,1.768512535095214844e+01,1.148969078063964844e+01,8.452494621276855469e+00,1.556006073951721191e+00,1.088669300079345703e+01,1.422806167602539062e+01,1.727363777160644531e+01,1.160363388061523438e+01,1.034117126464843750e+01,1.700831413269042969e+01,1.904779052734375000e+01,2.141853904724121094e+01,1.627960014343261719e+01,1.459424209594726562e+01,1.170619869232177734e+01,1.435883235931396484e+01,1.401417827606201172e+01,1.737738800048828125e+01,1.292007446289062500e+01,1.075666904449462891e+01,1.141732597351074219e+01,1.840536117553710938e+01,1.794322204589843750e+01,1.561296272277832031e+01,1.613240051269531250e+01,1.566228008270263672e+01,2.801763534545898438e+01
-2.650416791439056396e-01,2.980024814605712891e+00,-2.614722728729248047e+00,3.952379897236824036e-02,4.406079769134521484e+00,9.233373641967773438e+00,6.256440162658691406e+00,3.263394594192504883e+00,3.619790554046630859e+00,4.969276905059814453e+00,4.189343929290771484e+00,4.275006294250488281e+00,7.673547267913818359e-01,2.048000335693359375e+00,8.871602058410644531e+00,1.327611351013183594e+01,1.123755359649658203e+01,4.384843349456787109e+00,3.593185901641845703e+00,-3.313254415988922119e-01,-5.435929894447326660e-01,-1.424038052558898926e+00,1.998973011970520020e+00,-5.117856025695800781e+00,-5.362006187438964844e+00,-2.914356946945190430e+00,7.436643600463867188e+00,3.653984308242797852e+00,3.093042612075805664e+00,5.450339317321777344e-01,-5.596775531768798828e+00,7.273451328277587891e+00
-1.557121372222900391e+01,-4.685580730438232422e+00,3.548372983932495117e-01,-2.523440837860107422e+00,-9.273015022277832031e+00,-1.368129825592041016e+01,-1.308783149719238281e+01,-1.163298606872558594e+01,2.260475158691406250e+00,-2.488968849182128906e+00,-5.033127307891845703e+00,-1.034767913818359375e+01,-8.011757850646972656e+00,-4.775964260101318359e+00,-6.256038665771484375e+00,-6.263299465179443359e+00,-9.207416534423828125e+00,-1.267371177673339844e+01,-1.182343006134033203e+01,-9.087081909179687500e+00,-9.359329223632812500e+00,-1.048360252380371094e+01,-1.179363632202148438e+01,-1.554207324981689453e+00,3.369910001754760742e+00,-1.413756012916564941e+00,-9.629720687866210938e+00,-1.013827991485595703e+01,-1.259803104400634766e+01,-1.093882083892822266e+01,-1.135253047943115234e+01,-1.054939651489257812e+01
2.645615816116333008e+00,1.038070583343505859e+01,1.369062900543212891e+01,1.135921573638916016e+01,7.552209377288818359e+00,5.685682773590087891e+00,8.051801681518554688e+00,3.808664560317993164e+00,-1.485843420028686523e+00,2.962126731872558594e+00,1.079580879211425781e+01,1.025728416442871094e+01,1.164932346343994141e+01,1.017581939697265625e+01,5.379659175872802734e+00,4.401916980743408203e+00,6.553966999053955078e+00,3.178637504577636719e+00,1.326765418052673340e+00,7.892060756683349609e+00,1.166088962554931641e+01,9.915650367736816406e+00,6.648046016693115234e+00,3.671494483947753906e+00,-1.197831749916076660e+00,-8.803777694702148438e-01,2.841495275497436523e+00,7.859178066253662109e+00,5.229979038238525391e+00,4.878706932067871094e+00,9.363120794296264648e-01,1.479510688781738281e+01
1.653065299987792969e+01,1.089480209350585938e+01,4.212683677673339844e+00,6.738004207611083984e+00,1.238945484161376953e+01,2.187693405151367188e+01,1.946084213256835938e+01,1.420611095428466797e+01,-1.584207534790039062e+00,-3.211031258106231689e-01,8.084878921508789062e+00,1.927260208129882812e+01,1.508867168426513672e+01,1.033514690399169922e+01,9.792099952697753906e+00,1.460297584533691406e+01,1.578765201568603516e+01,1.251202106475830078e+01,1.223910140991210938e+01,1.524986934661865234e+01,1.556120395660400391e+01,1.349332046508789062e+01,1.232472419738769531e+01,-6.125019073486328125e+00,-1.263369750976562500e+01,-8.704899787902832031e+00,1.442384338378906250e+01,1.893041610717773438e+01,1.984265518188476562e+01,1.122575092315673828e+01,-4.046082973480224609e+00,1.344702339172363281e+01
1.705040168762207031e+01,1.355787277221679688e+01,7.990026473999023438e+00,9.255151748657226562e+00,1.167299652099609375e+01,1.250849819183349609e+01,1.124534797668457031e+01,1.121639060974121094e+01,9.573606491088867188e+00,-1.796699404716491699e+00,-1.974203944206237793e+00,3.645986318588256836e+00,5.406639575958251953e+00,-1.417385339736938477e-01,1.115113377571105957e+00,1.072952651977539062e+01,1.379368782043457031e+01,1.381478404998779297e+01,1.046775150299072266e+01,1.174915695190429688e+01,1.323481082916259766e+01,1.348374652862548828e+01,1.278987884521484375e+01,7.686983585357666016e+00,3.665995836257934570e+00,6.733219146728515625e+00,1.280744647979736328e+01,1.353566455841064453e+01,1.610507011413574219e+01,1.611223220825195312e+01,5.198055744171142578e+00,3.857650995254516602e+00
1.297000503540039062e+01,1.835854530334472656e+01,1.495577144622802734e+01,1.555925655364990234e+01,1.580575847625732422e+01,2.009160995483398438e+01,2.110245895385742188e+01,1.417073631286621094e+01,6.752371788024902344e+00,2.468822002410888672e+00,1.135890960693359375e+01,1.391452598571777344e+01,1.035552120208740234e+01,4.714632511138916016e+00,5.559072494506835938e-01,6.736154556274414062e+00,1.206103610992431641e+01,1.486414623260498047e+01,1.066099548339843750e+01,1.377397632598876953e+01,1.708298110961914062e+01,1.915438270568847656e+01,1.535346889495849609e+01,1.319043731689453125e+01,1.185318470001220703e+01,9.566546440124511719e+00,1.093574047088623047e+01,1.165151786804199219e+01,1.313644218444824219e+01,1.504970455169677734e+01,1.311604022979736328e+01,1.155228328704833984e+01
-1.163926792144775391e+01,-1.230647563934326172e+01,-1.171489238739013672e+01,-1.163600730895996094e+01,-1.191663169860839844e+01,-2.571254074573516846e-01,2.400737047195434570e+00,-4.192287445068359375e+00,-1.042033386230468750e+01,-1.105545234680175781e+01,-2.783791780471801758e+00,4.953951835632324219e+00,-2.838266611099243164e+00,-8.870946884155273438e+00,-1.451386547088623047e+01,-1.270006275177001953e+01,-1.114621448516845703e+01,-7.657901763916015625e+00,-7.665272235870361328e+00,-7.548704147338867188e+00,-6.445062160491943359e+00,-2.678759098052978516e+00,-7.167766094207763672e+00,-8.231453895568847656e+00,-3.681138992309570312e+00,-6.623798847198486328e+00,-1.195690727233886719e+01,-1.274681758880615234e+01,-1.145460033416748047e+01,-1.176406669616699219e+01,-8.846360206604003906e+00,-7.991401672363281250e+00
-1.406051826477050781e+01,-1.796773719787597656e+01,-1.682706451416015625e+01,-1.781093788146972656e+01,-1.553212833404541016e+01,-1.945166587829589844e+01,-1.667027473449707031e+01,-1.194737815856933594e+01,-1.042742729187011719e+01,-1.138000774383544922e+01,-1.691862678527832031e+01,-1.770493507385253906e+01,-1.286900901794433594e+01,-1.201455211639404297e+01,-1.867847442626953125e+01,-1.639659881591796875e+01,-1.693699645996093750e+01,-1.036344242095947266e+01,-8.374069213867187500e+00,-8.127937316894531250e+00,-9.759230613708496094e+00,-1.115003013610839844e+01,-1.323161125183105469e+01,-7.925857067108154297e+00,-4.566309928894042969e+00,-4.196688175201416016e+00,-1.350598621368408203e+01,-1.566288280487060547e+01,-1.387164592742919922e+01,-1.177011775970458984e+01,-8.440731048583984375e+00,-1.945130157470703125e+01
1.081966876983642578e+01,5.963029384613037109e+00,5.066260337829589844e+00,2.866406202316284180e+00,6.010038852691650391e+00,-5.491476655006408691e-01,1.060531854629516602e+00,5.537067890167236328e+00,3.063114166259765625e+00,1.010051012039184570e+00,-5.785449981689453125e+00,-1.900884389877319336e+00,5.244124889373779297e+00,4.213344573974609375e+00,-8.749873042106628418e-01,3.746314764022827148e+00,6.906891345977783203e+00,1.314846801757812500e+01,1.358021259307861328e+01,1.234888744354248047e+01,1.297718906402587891e+01,1.191280460357666016e+01,1.278828048706054688e+01,1.570948982238769531e+01,1.651854133605957031e+01,1.564300727844238281e+01,7.129664897918701172e+00,7.587781429290771484e+00,1.043917942047119141e+01,1.094021892547607422e+01,1.620712852478027344e+01,1.087287712097167969e+01
1.685700607299804688e+01,1.510508728027343750e+01,1.894211387634277344e+01,1.754328346252441406e+01,1.230704021453857422e+01,1.418019199371337891e+01,1.370187091827392578e+01,9.009063720703125000e+00,3.665877342224121094e+00,2.872100830078125000e+00,5.604956150054931641e+00,1.099233627319335938e+01,1.590956974029541016e+01,1.315048217773437500e+01,1.393936634063720703e+01,1.592047405242919922e+01,1.991023063659667969e+01,1.967795181274414062e+01,1.716526985168457031e+01,1.331551551818847656e+01,1.403524875640869141e+01,1.718045425415039062e+01,1.929755020141601562e+01,1.227409648895263672e+01,1.124836254119873047e+01,1.001925563812255859e+01,1.151823711395263672e+01,1.164637660980224609e+01,9.968382835388183594e+00,6.361875057220458984e+00,1.470528697967529297e+01,2.520341491699218750e+01
-5.303431510925292969e+00,-8.081996917724609375e+00,2.184163331985473633e+00,1.343324661254882812e+00,-8.928115844726562500e+00,-8.378593444824218750e+00,-8.995939254760742188e+00,-1.184624099731445312e+01,-1.037523555755615234e+01,-8.696346282958984375e+00,-8.343682289123535156e+00,-4.881207466125488281e+00,-4.207938313484191895e-01,1.871752142906188965e+00,4.664530754089355469e+00,2.172970294952392578e+00,1.516888499259948730e+00,-7.694067358970642090e-01,-1.711319208145141602e+00,-7.104362010955810547e+00,-1.056487178802490234e+01,-7.898097991943359375e+00,-5.458806991577148438e+00,-1.305932712554931641e+01,-1.285525894165039062e+01,-1.118270301818847656e+01,-7.643519878387451172e+00,-1.107541465759277344e+01,-1.653157234191894531e+01,-2.080398368835449219e+01,-1.002548980712890625e+01,-1.306859999895095825e-01
-5.266125202178955078e+00,-1.254747867584228516e+01,-1.209685707092285156e+01,-1.142496490478515625e+01,-9.215830802917480469e+00,-8.921514511108398438e+00,-1.136043834686279297e+01,-1.001239871978759766e+01,-8.910821914672851562e+00,-9.136668205261230469e+00,-1.250469684600830078e+01,-5.138820648193359375e+00,-3.676649332046508789e+00,-4.984551429748535156e+00,-6.891804218292236328e+00,-3.856856346130371094e+00,4.842745065689086914e-01,1.032978534698486328e+00,-3.682215452194213867e+00,-1.006649875640869141e+01,-1.451204776763916016e+01,-9.129839897155761719e+00,-4.574485778808593750e+00,-5.727521896362304688e+00,-7.089335441589355469e+00,-5.707537174224853516e+00,-9.241320610046386719e+00,-1.050200939178466797e+01,-7.678068637847900391e+00,-9.007105827331542969e+00,-1.143988990783691406e+01,-1.720173072814941406e+01
3.809095859527587891e+00,2.296499252319335938e+00,-1.813602089881896973e+00,3.341550588607788086e+00,1.010725498199462891e+01,9.698933601379394531e+00,8.571128845214843750e+00,8.911432266235351562e+00,6.496045589447021484e+00,3.692705154418945312e+00,-1.724563002586364746e+00,-2.178870439529418945e+00,5.649855613708496094e+00,2.387764453887939453e+00,3.891248703002929688e+00,8.528997421264648438e+00,1.169561100006103516e+01,1.338553428649902344e+01,9.761973381042480469e+00,8.907823562622070312e+00,4.902776718139648438e+00,8.541851997375488281e+00,8.991731643676757812e+00,5.652143955230712891e+00,3.564793109893798828e+00,5.604794025421142578e+00,7.621981143951416016e+00,6.165777683258056641e+00,6.889608860015869141e+00,4.716151714324951172e+00,7.794058322906494141e+00,7.345076560974121094e+00
-2.540525913238525391e+00,-9.114904403686523438e+00,9.572578668594360352e-01,2.196360349655151367e+00,-6.982301235198974609e+00,-1.002371883392333984e+01,-4.074074745178222656e+00,-3.064187049865722656e+00,7.464512348175048828e+00,4.978517055511474609e+00,-3.629421949386596680e+00,-1.306090927124023438e+01,-4.865545749664306641e+00,-3.605321407318115234e+00,1.768714189529418945e-01,2.039748668670654297e+00,2.002434015274047852e+00,1.199996113777160645e+00,5.186761021614074707e-01,3.433460474014282227e+00,8.567857146263122559e-01,-1.364218711853027344e+00,-3.922548294067382812e+00,-6.211312770843505859e+00,-6.656748771667480469e+00,-7.029995918273925781e+00,-6.528192520141601562e+00,-9.350996017456054688e+00,-1.636974716186523438e+01,-1.920001220703125000e+01,-4.769593238830566406e+00,1.385524082183837891e+01
-2.949242830276489258e+00,-1.354253673553466797e+01,-5.998048305511474609e+00,-9.835646629333496094e+00,-1.956105232238769531e+01,-1.916410636901855469e+01,-1.176908302307128906e+01,-9.433666229248046875e+00,-5.795409679412841797e+00,1.269483923912048340e+00,-3.577278375625610352e+00,-8.206171035766601562e+00,-6.737417697906494141e+00,-1.396076560020446777e+00,-3.493609905242919922e+00,-7.479862689971923828e+00,-8.669682502746582031e+00,-7.730332374572753906e+00,-5.890092849731445312e+00,-9.172011613845825195e-01,-4.315058231353759766e+00,-9.496067047119140625e+00,-1.396343803405761719e+01,-7.328438282012939453e+00,-5.105382919311523438e+00,-7.611038208007812500e+00,-1.775880622863769531e+01,-1.528167438507080078e+01,-1.585352706909179688e+01,-1.832528305053710938e+01,-1.644675827026367188e+01,-9.823938369750976562e+00
-4.080116271972656250e+00,-8.674599647521972656e+00,-1.616984367370605469e+01,-1.662132644653320312e+01,-9.300444602966308594e+00,-7.664833545684814453e+00,-4.245897293090820312e+00,-9.116830229759216309e-01,-7.275574207305908203e+00,-5.696187019348144531e+00,-6.383160114288330078e+00,-3.072304725646972656e+00,-7.515565156936645508e-01,1.838142275810241699e+00,-8.278088569641113281e-01,-6.677099227905273438e+00,-8.585551261901855469e+00,-4.592388153076171875e+00,-3.399212837219238281e+00,8.802428841590881348e-01,-1.446820497512817383e+00,-2.453754425048828125e+00,-9.828327178955078125e+00,-3.284287929534912109e+00,1.020009279251098633e+00,-2.941351830959320068e-01,-1.237614822387695312e+01,-9.226591110229492188e+00,1.091890573501586914e+00,8.411454558372497559e-01,-9.439370155334472656e+00,-3.221574401855468750e+01
-1.391081905364990234e+01,-1.722577476501464844e+01,-1.838815116882324219e+01,-1.585640907287597656e+01,-6.597319602966308594e+00,-1.299574279785156250e+01,-1.183384513854980469e+01,-8.555602073669433594e+00,-6.213060855865478516e+00,-6.413113594055175781e+00,-1.157060050964355469e+01,-1.191462898254394531e+01,-8.068468093872070312e+00,-7.982584953308105469e+00,-8.529953002929687500e+00,-1.007438087463378906e+01,-1.019653701782226562e+01,-6.420063495635986328e+00,-7.487781047821044922e+00,-5.472122192382812500e+00,-3.751383781433105469e+00,-2.170357942581176758e+00,-5.982735633850097656e+00,-1.399648571014404297e+01,-1.319307994842529297e+01,-8.558324813842773438e+00,-7.309468746185302734e+00,-1.249097728729248047e+01,-7.670810222625732422e+00,-6.575908184051513672e+00,-1.041764450073242188e+01,-2.762811660766601562e+01
-5.777682304382324219e+00,-1.248447132110595703e+01,-5.680457115173339844e+00,-4.775494575500488281e+00,-2.615340232849121094e+00,-8.914900779724121094e+00,-7.256054401397705078e+00,-6.640172004699707031e+00,-2.804959774017333984e+00,-4.331281036138534546e-02,-2.573270320892333984e+00,-1.213273882865905762e+00,-3.569874525070190430e+00,-5.652832031250000000e+00,-7.386020660400390625e+00,-5.340506076812744141e+00,-2.843520879745483398e+00,-1.707483649253845215e+00,-4.113523483276367188e+00,-4.306661128997802734e+00,-9.808447360992431641e-01,4.552502632141113281e-01,1.348080396652221680e+00,-1.323762702941894531e+01,-1.690448188781738281e+01,-1.270999717712402344e+01,-3.759920120239257812e+00,-6.847813606262207031e+00,-6.802136421203613281e+00,-7.697355270385742188e+00,-9.494172096252441406e+00,-4.212706089019775391e+00
8.644291877746582031e+00,4.792051792144775391e+00,2.533730030059814453e+00,2.620595932006835938e+00,4.586819648742675781e+00,7.515772819519042969e+00,9.846407890319824219e+00,8.102481842041015625e+00,3.321621894836425781e+00,3.624479055404663086e+00,9.451601028442382812e+00,1.607021713256835938e+01,1.358377933502197266e+01,1.032337188720703125e+01,1.149039936065673828e+01,1.223536396026611328e+01,1.665493583679199219e+01,1.339081287384033203e+01,1.060641765594482422e+01,7.971873760223388672e+00,1.032203388214111328e+01,1.178701591491699219e+01,9.963979721069335938e+00,6.527107715606689453e+00,2.465450048446655273e+00,1.000632643699645996e+00,3.865923881530761719e-01,5.296612262725830078e+00,7.820302009582519531e+00,5.184084892272949219e+00,2.160863876342773438e+00,8.233601450920104980e-01
-1.460637092590332031e+00,-7.077459812164306641e+00,-1.087644004821777344e+01,-1.045187091827392578e+01,-7.201322078704833984e+00,-5.335109233856201172e+00,-3.645085811614990234e+00,-3.920444011688232422e+00,-2.657049417495727539e+00,-2.237268835306167603e-01,5.466458320617675781e+00,6.838917255401611328e+00,8.435752868652343750e+00,9.571175575256347656e+00,1.234972381591796875e+01,1.120388793945312500e+01,1.472378158569335938e+01,9.416612625122070312e+00,6.687873363494873047e+00,1.508679270744323730e+00,3.909898996353149414e+00,3.421271324157714844e+00,-1.775012969970703125e+00,5.893116950988769531e+00,3.737930536270141602e+00,5.278993770480155945e-02,-1.021024703979492188e+01,-5.721539974212646484e+00,-4.129933834075927734e+00,-7.039463996887207031e+00,-8.683304786682128906e+00,-2.149860191345214844e+01
-1.186412143707275391e+01,-2.105355453491210938e+01,-1.706895256042480469e+01,-1.642313575744628906e+01,-1.375721168518066406e+01,-1.818769645690917969e+01,-1.606900024414062500e+01,-1.306457805633544922e+01,-7.890777111053466797e+00,-6.161013603210449219e+00,-4.914858341217041016e+00,-3.823299646377563477e+00,-5.921178340911865234e+00,-6.380436420440673828e+00,-6.853410243988037109e+00,-5.518001556396484375e+00,-3.507411718368530273e+00,-6.545740604400634766e+00,-8.221290588378906250e+00,-1.359509658813476562e+01,-1.176410007476806641e+01,-1.149857521057128906e+01,-1.071806907653808594e+01,-1.615864562988281250e+01,-1.603564262390136719e+01,-1.925901222229003906e+01,-1.532709789276123047e+01,-1.410570049285888672e+01,-1.510830974578857422e+01,-1.649536132812500000e+01,-2.000918769836425781e+01,-2.204241943359375000e+01
2.505329370498657227e+00,-1.239606261253356934e+00,-6.167744994163513184e-01,1.247137069702148438e+00,6.290978908538818359e+00,6.567329406738281250e+00,7.572406291961669922e+00,8.664989471435546875e+00,-5.565585494041442871e-01,7.223201990127563477e-01,-1.505744814872741699e+00,5.045756816864013672e+00,2.059608221054077148e+00,-4.747412681579589844e+00,-7.920695304870605469e+00,-7.702329754829406738e-01,3.841733694076538086e+00,2.569527864456176758e+00,-3.896508514881134033e-01,-3.652602195739746094e+00,-1.238668680191040039e+00,2.927017211914062500e+00,9.049609184265136719e+00,-1.306175804138183594e+01,-1.787184906005859375e+01,-1.317969417572021484e+01,-4.039926081895828247e-02,2.477251052856445312e+00,4.618540763854980469e+00,4.612733840942382812e+00,2.011019229888916016e+00,1.346216917037963867e+00
1.314949321746826172e+01,1.665999794006347656e+01,1.181874847412109375e+01,1.273517036437988281e+01,1.919401168823242188e+01,2.245121955871582031e+01,2.250686836242675781e+01,2.038717079162597656e+01,1.388064289093017578e+01,1.130190563201904297e+01,5.285244464874267578e+00,4.176860332489013672e+00,6.827266693115234375e+00,5.628868579864501953e+00,8.315384864807128906e+00,1.290607070922851562e+01,1.591393947601318359e+01,1.502777576446533203e+01,1.044735336303710938e+01,9.260137557983398438e+00,1.260459327697753906e+01,1.552685832977294922e+01,1.867743110656738281e+01,8.982220649719238281e+00,1.380892634391784668e+00,8.497209548950195312e+00,1.479301548004150391e+01,1.796281433105468750e+01,1.852293014526367188e+01,1.474578094482421875e+01,1.286712455749511719e+01,1.040305614471435547e+01
9.377758979797363281e+00,4.944724082946777344e+00,-1.096935629844665527e+00,-1.322028875350952148e+00,1.206918525695800781e+01,1.139426231384277344e+01,8.519722938537597656e+00,5.553890705108642578e+00,1.009882259368896484e+01,8.194228172302246094e+00,4.198152542114257812e+00,-2.402137994766235352e+00,-1.105442404747009277e+00,4.439969062805175781e+00,8.318182945251464844e+00,6.017865657806396484e+00,1.206001639366149902e+00,2.524855613708496094e+00,1.358940005302429199e+00,-1.754756644368171692e-02,2.340045869350433350e-01,1.001134634017944336e+00,3.463724136352539062e+00,1.106043720245361328e+01,8.439879417419433594e+00,8.426461219787597656e+00,8.803964614868164062e+00,1.186401844024658203e+01,1.117548942565917969e+01,5.839587211608886719e+00,-9.479818344116210938e-01,-1.068093490600585938e+01
5.873735904693603516e+00,-2.584370613098144531e+00,-5.889046669006347656e+00,-4.080098628997802734e+00,5.717523574829101562e+00,4.975250244140625000e+00,8.642980575561523438e+00,9.903294563293457031e+00,3.468477725982666016e+00,1.468106269836425781e+00,6.971086025238037109e+00,8.307572364807128906e+00,7.153400897979736328e+00,3.696392536163330078e+00,-5.067650794982910156e+00,-9.735193252563476562e+00,-1.160451030731201172e+01,-8.736389160156250000e+00,-1.010182094573974609e+01,-9.700627326965332031e+00,-9.409767150878906250e+00,-6.450977325439453125e+00,-7.104526758193969727e-01,-6.543919563293457031e+00,-7.129077911376953125e+00,-8.218136787414550781e+00,2.094153165817260742e+00,2.454002380371093750e+00,2.930737257003784180e+00,2.208681821823120117e+00,-2.456047385931015015e-02,-1.101308536529541016e+01
-5.938890576362609863e-01,-4.066544055938720703e+00,-1.306363701820373535e+00,1.530832290649414062e+00,2.691954135894775391e+00,1.894394040107727051e+00,6.950598239898681641e+00,1.065755653381347656e+01,4.461074829101562500e+00,3.494995117187500000e+00,7.604718685150146484e+00,6.883635044097900391e+00,7.846176147460937500e+00,3.987979590892791748e-01,-1.269544601440429688e+01,-1.471506309509277344e+01,-1.137805080413818359e+01,-8.539346694946289062e+00,-1.272353172302246094e+01,-1.168560123443603516e+01,-9.548933982849121094e+00,-4.261463642120361328e+00,4.307719171047210693e-01,-1.239905643463134766e+01,-1.553932952880859375e+01,-1.284627056121826172e+01,3.269319832324981689e-01,-3.694158792495727539e+00,2.945586740970611572e-01,5.174149513244628906e+00,5.461924552917480469e+00,-5.275828838348388672e+00
-8.901621818542480469e+00,-8.654614448547363281e+00,-4.142752647399902344e+00,-4.348942279815673828e+00,-2.809273004531860352e+00,-7.081743240356445312e+00,-9.939808845520019531e+00,-2.980346918106079102e+00,2.452498078346252441e-01,1.252471208572387695e+00,-4.631819725036621094e+00,-8.086962699890136719e+00,-6.856742858886718750e+00,-4.522840023040771484e+00,-4.262519836425781250e+00,-4.812620639801025391e+00,-7.424839973449707031e+00,-6.411774158477783203e+00,-5.363664627075195312e+00,-5.730684757232666016e+00,-5.691873550415039062e+00,-4.071321487426757812e+00,-4.122246742248535156e+00,-1.452813386917114258e+00,2.750082686543464661e-02,1.706910610198974609e+00,1.489666551351547241e-01,-3.168435811996459961e+00,-5.662696361541748047e-01,5.092055797576904297e+00,1.304569482803344727e+00,-6.745482921600341797e+00
-1.787139058113098145e+00,3.419127464294433594e+00,6.316052913665771484e+00,4.636760234832763672e+00,2.214975833892822266e+00,-3.688299357891082764e-01,-3.149974346160888672e+00,5.784832477569580078e+00,1.998873472213745117e+00,5.773038864135742188e-01,-3.299286365509033203e+00,2.693531036376953125e+00,2.047395229339599609e+00,3.935406923294067383e+00,1.000863456726074219e+01,9.012745857238769531e+00,5.114352703094482422e+00,3.135339260101318359e+00,8.340451240539550781e+00,9.435356140136718750e+00,1.016829395294189453e+01,7.613200187683105469e+00,8.195206642150878906e+00,2.896884679794311523e+00,3.283004462718963623e-01,3.899268388748168945e+00,9.839216232299804688e+00,8.215302467346191406e+00,2.506530284881591797e-01,3.562753677368164062e+00,9.086865425109863281e+00,1.431696987152099609e+01
8.560085296630859375e+00,1.378221893310546875e+01,1.790829467773437500e+01,2.124569892883300781e+01,1.489709377288818359e+01,1.447605228424072266e+01,1.255810165405273438e+01,1.702859306335449219e+01,1.125531959533691406e+01,1.164343547821044922e+01,1.486574077606201172e+01,1.933863830566406250e+01,1.649767494201660156e+01,9.911838531494140625e+00,6.030052185058593750e+00,6.659869194030761719e+00,1.108654975891113281e+01,1.128463459014892578e+01,8.730123519897460938e+00,9.046967506408691406e+00,1.317780017852783203e+01,1.422754287719726562e+01,1.554882335662841797e+01,1.212075138092041016e+01,1.185479164123535156e+01,1.135616207122802734e+01,1.263818359375000000e+01,1.288465213775634766e+01,2.866228580474853516e+00,2.844852685928344727e+00,1.220902633666992188e+01,2.859963417053222656e+01
-4.592656135559082031e+00,-4.338607311248779297e+00,2.229962825775146484e+00,8.799427032470703125e+00,6.983438014984130859e+00,2.191560983657836914e+00,-3.389847278594970703e-01,3.177079200744628906e+00,7.210322856903076172e+00,7.920765876770019531e+00,8.795491218566894531e+00,1.937909126281738281e+00,2.405591249465942383e+00,-7.534640431404113770e-01,-7.426403522491455078e+00,-6.722677707672119141e+00,-4.985593318939208984e+00,-4.562777042388916016e+00,-6.802639961242675781e+00,-5.462613105773925781e+00,-3.011626243591308594e+00,-2.892598628997802734e+00,-4.234850406646728516e+00,8.494695663452148438e+00,1.622470283508300781e+01,1.005655288696289062e+01,-1.945401072502136230e+00,-2.594770431518554688e+00,-2.065847158432006836e+00,-2.425836563110351562e+00,-5.880278944969177246e-01,3.400707483291625977e+00
-1.887850379943847656e+01,-1.714399719238281250e+01,-9.692816734313964844e+00,-6.954203605651855469e+00,-9.320080757141113281e+00,-1.868514060974121094e+01,-1.814528465270996094e+01,-1.003663063049316406e+01,-6.612230300903320312e+00,-8.090724945068359375e+00,-1.373435592651367188e+01,-1.999044227600097656e+01,-1.660503578186035156e+01,-1.316549396514892578e+01,-1.598256111145019531e+01,-1.965766716003417969e+01,-2.575702285766601562e+01,-2.336827278137207031e+01,-1.807662773132324219e+01,-1.525315666198730469e+01,-1.710552978515625000e+01,-1.985270690917968750e+01,-2.051902961730957031e+01,-1.305895709991455078e+01,-3.383037328720092773e+00,-9.351302146911621094e+00,-1.135365772247314453e+01,-1.535274505615234375e+01,-1.427728366851806641e+01,-1.320309257507324219e+01,-1.125018310546875000e+01,-1.450641250610351562e+01
-6.434197902679443359e+00,-3.969104528427124023e+00,5.753094196319580078e+00,6.172212123870849609e+00,-1.611215829849243164e+00,-1.132783508300781250e+01,-1.028684902191162109e+01,-5.264291763305664062e+00,-6.767537593841552734e+00,-8.161788940429687500e+00,-1.314342784881591797e+01,-1.385211277008056641e+01,-1.120538330078125000e+01,-9.815161705017089844e+00,-9.969458580017089844e+00,-1.446135234832763672e+01,-1.802880287170410156e+01,-1.434049797058105469e+01,-5.172659873962402344e+00,-3.171809434890747070e+00,-5.467378139495849609e+00,-1.114280319213867188e+01,-1.023580265045166016e+01,-1.519526195526123047e+01,-1.262415313720703125e+01,-7.267948627471923828e+00,-1.179477453231811523e+00,-7.175679206848144531e+00,-1.153722476959228516e+01,-1.000957965850830078e+01,-4.894998967647552490e-01,1.149290943145751953e+01
1.395497798919677734e+00,4.753577709197998047e+00,1.226974487304687500e+01,1.789273071289062500e+01,1.450802421569824219e+01,7.608172893524169922e+00,6.526624679565429688e+00,6.099625110626220703e+00,6.150984764099121094e+00,3.747389793395996094e+00,6.522427558898925781e+00,1.337257862091064453e+00,7.006447315216064453e-01,-4.787607192993164062e-01,-4.276246547698974609e+00,-5.493034839630126953e+00,-6.693020343780517578e+00,-5.734485626220703125e+00,-3.578459024429321289e+00,-4.766062796115875244e-01,8.282858133316040039e-01,-8.892779350280761719e-01,-2.528049468994140625e+00,-2.193162441253662109e-01,1.252252936363220215e+00,7.220500946044921875e+00,3.100022077560424805e+00,1.993290305137634277e+00,4.763474464416503906e+00,4.207718372344970703e+00,6.211116313934326172e+00,1.496024703979492188e+01
-1.180460739135742188e+01,-3.820000648498535156e+00,-2.847985982894897461e+00,2.218774408102035522e-01,2.011435270309448242e+00,-1.940955638885498047e+00,-3.481249094009399414e+00,-1.316475868225097656e+00,4.667305946350097656e+00,4.869953155517578125e+00,-3.611544966697692871e-01,-1.008088684082031250e+01,-5.403687953948974609e+00,-6.403093814849853516e+00,-1.060300636291503906e+01,-1.048025608062744141e+01,-1.446982288360595703e+01,-1.734537124633789062e+01,-1.950127029418945312e+01,-1.651984977722167969e+01,-1.530393695831298828e+01,-1.302157402038574219e+01,-1.434062004089355469e+01,-5.384594202041625977e-01,2.708162069320678711e+00,3.973539173603057861e-01,-7.281776428222656250e+00,-6.860549926757812500e+00,4.735150337219238281e-01,-5.194583535194396973e-01,-8.054519653320312500e+00,-1.483051967620849609e+01
-1.253822326660156250e+01,-4.353445172309875488e-01,1.237054944038391113e+00,-5.961537361145019531e+00,-1.056702613830566406e+01,-1.224149227142333984e+01,-1.306170749664306641e+01,-9.371531486511230469e+00,-9.985947608947753906e+00,-4.158363819122314453e+00,-8.749117851257324219e+00,-1.174563121795654297e+01,-1.030669689178466797e+01,-7.446591854095458984e+00,-6.275372982025146484e+00,-8.364331245422363281e+00,-1.234252548217773438e+01,-1.478829956054687500e+01,-9.061043739318847656e+00,-7.898315429687500000e+00,-1.145081329345703125e+01,-1.720573234558105469e+01,-1.805570030212402344e+01,5.732930183410644531e+00,1.758019065856933594e+01,1.117648029327392578e+01,-3.571465253829956055e+00,-9.714091300964355469e+00,-1.087072372436523438e+01,-7.512959003448486328e+00,-1.503963351249694824e+00,8.240318298339843750e+00
6.581600189208984375e+00,1.708795738220214844e+01,2.138038253784179688e+01,1.606156730651855469e+01,7.775271892547607422e+00,1.012743091583251953e+01,1.099150466918945312e+01,9.833636283874511719e+00,-6.729807376861572266e+00,-1.871936798095703125e+00,7.562660694122314453e+00,1.582711219787597656e+01,5.395766735076904297e+00,7.688582897186279297e+00,1.095885848999023438e+01,8.509673118591308594e+00,6.129816055297851562e+00,1.774264454841613770e+00,1.071131134033203125e+01,1.264108467102050781e+01,7.848004341125488281e+00,-1.434043288230895996e+00,-1.883481144905090332e-01,8.886290550231933594e+00,1.728755569458007812e+01,1.839296531677246094e+01,1.545703983306884766e+01,7.726120471954345703e+00,6.007631301879882812e+00,1.188939571380615234e+01,2.208931350708007812e+01,3.821553039550781250e+01
1.012435245513916016e+01,1.564900970458984375e+01,1.347627925872802734e+01,1.404593181610107422e+01,1.240608787536621094e+01,1.952455139160156250e+01,1.646415138244628906e+01,1.221428394317626953e+01,3.998829603195190430e+00,1.387808918952941895e+00,7.862445831298828125e+00,1.525278854370117188e+01,1.334158611297607422e+01,1.034949970245361328e+01,1.372016620635986328e+01,1.568651676177978516e+01,1.574151420593261719e+01,7.522812366485595703e+00,6.603318214416503906e+00,6.971118927001953125e+00,7.479904174804687500e+00,7.062875270843505859e+00,7.141709327697753906e+00,4.091945648193359375e+00,2.344233274459838867e+00,4.864012718200683594e+00,1.604184341430664062e+01,1.451179981231689453e+01,1.854522895812988281e+01,1.950529479980468750e+01,1.786457824707031250e+01,2.239059829711914062e+01
-5.938819408416748047e+00,-1.100221052765846252e-01,-4.233208179473876953e+00,-7.985673427581787109e+00,-1.046451091766357422e+01,-6.443428039550781250e+00,-9.596192359924316406e+00,-8.899548530578613281e+00,6.612877368927001953e+00,4.881086826324462891e+00,-3.771135091781616211e+00,-1.153184795379638672e+01,-2.475689172744750977e+00,-3.395689010620117188e+00,1.329501390457153320e+00,5.890114784240722656e+00,7.392128467559814453e+00,2.888360023498535156e+00,-5.878782272338867188e-01,-4.572655200958251953e+00,-4.217355251312255859e+00,-2.407236814498901367e+00,-4.813567638397216797e+00,2.892677545547485352e+00,5.713084220886230469e+00,2.578543901443481445e+00,1.017720222473144531e+00,-1.020809054374694824e+00,-5.169699192047119141e-01,1.888085126876831055e+00,4.098812580108642578e+00,-8.472806811332702637e-01
-1.399145317077636719e+01,-2.550530195236206055e+00,-8.711550384759902954e-02,-7.328687191009521484e+00,-1.630133056640625000e+01,-2.104022789001464844e+01,-2.177041816711425781e+01,-1.748361015319824219e+01,5.754915475845336914e-01,-9.127658009529113770e-01,-8.015208244323730469e+00,-1.766601562500000000e+01,-1.330153942108154297e+01,-1.008719348907470703e+01,-5.056569099426269531e+00,-2.492577791213989258e+00,-4.079928100109100342e-01,2.751635313034057617e+00,6.127530574798583984e+00,-1.735743999481201172e+00,-5.650454044342041016e+00,-8.524876594543457031e+00,-9.396043777465820312e+00,-4.380045533180236816e-01,7.610927581787109375e+00,5.397649765014648438e+00,-3.934434413909912109e+00,-1.125076198577880859e+01,-1.199064636230468750e+01,-4.441139698028564453e+00,4.250139236450195312e+00,8.615291595458984375e+00
-6.582919120788574219e+00,3.582146883010864258e+00,2.999990463256835938e+00,-1.606451988220214844e+00,-6.156985282897949219e+00,-6.656995773315429688e+00,-2.982499837875366211e+00,-2.879353523254394531e+00,-6.642394065856933594e+00,-1.134963703155517578e+01,-5.371590614318847656e+00,-1.607958793640136719e+00,-7.755283832550048828e+00,-4.187880516052246094e+00,2.063998460769653320e+00,9.448515772819519043e-01,-8.518709540367126465e-01,1.054203391075134277e+00,5.185351371765136719e+00,-5.975836515426635742e-01,-1.738683938980102539e+00,-3.926774978637695312e+00,-5.781463146209716797e+00,-6.014752388000488281e+00,-2.645877122879028320e+00,-8.974516987800598145e-01,-1.797620534896850586e+00,-8.691365242004394531e+00,-4.063088893890380859e+00,5.265409946441650391e+00,7.863263607025146484e+00,4.531084537506103516e+00
2.190170764923095703e+00,-1.685565471649169922e+00,-7.177584171295166016e+00,-8.360224723815917969e+00,-5.934617042541503906e+00,-2.479411125183105469e+00,-4.724147796630859375e+00,-5.944804191589355469e+00,-8.244282722473144531e+00,-1.196718406677246094e+01,-1.230790042877197266e+01,-4.332830429077148438e+00,-5.800323486328125000e+00,-2.905607223510742188e-01,4.270682811737060547e+00,2.383208513259887695e+00,-4.283661365509033203e+00,-5.103691101074218750e+00,-3.350803136825561523e+00,-1.455910921096801758e+00,6.086235046386718750e-01,8.223854303359985352e-01,-5.994367122650146484e+00,2.104319810867309570e+00,4.331499576568603516e+00,3.483519554138183594e+00,-2.174343109130859375e+00,-4.121335029602050781e+00,-3.762839555740356445e+00,1.409520626068115234e+00,2.201044082641601562e+00,-5.463818311691284180e-01
1.201413726806640625e+01,-3.318970441818237305e+00,-3.246512889862060547e+00,-3.587449789047241211e+00,-4.520709991455078125e+00,-8.035037040710449219e+00,-1.599642276763916016e+01,-1.555238533020019531e+01,-1.152491807937622070e+00,2.212879896163940430e+00,-3.207719087600708008e+00,-9.471636772155761719e+00,-7.519283294677734375e+00,-2.517961740493774414e+00,-1.931519031524658203e+00,-2.560668706893920898e+00,-5.892425537109375000e+00,-1.827421665191650391e+00,8.809354305267333984e-01,6.604747295379638672e+00,6.620376110076904297e+00,7.336131095886230469e+00,2.996322393417358398e+00,8.713741302490234375e+00,1.053330802917480469e+01,1.073812484741210938e+01,6.616030216217041016e+00,5.652300834655761719e+00,-2.657077312469482422e-01,-2.876499891281127930e+00,-2.164175271987915039e+00,1.078111457824707031e+01
8.807447433471679688e+00,6.354043006896972656e+00,9.650093078613281250e+00,8.132348060607910156e+00,2.305611133575439453e+00,-1.647836685180664062e+00,-1.047162890434265137e+00,-3.115520238876342773e+00,4.789383411407470703e+00,3.383999824523925781e+00,9.123232841491699219e+00,-4.682036399841308594e+00,-7.975780963897705078e+00,-8.937281608581542969e+00,-9.608777999877929688e+00,-9.923358917236328125e+00,-9.606434822082519531e+00,-4.524921417236328125e+00,-3.421741247177124023e+00,1.103074789047241211e+00,1.611114978790283203e+00,4.933526039123535156e+00,7.279223918914794922e+00,-7.229918837547302246e-01,-3.050008296966552734e+00,-8.075253963470458984e-01,7.878690242767333984e+00,7.154778957366943359e+00,6.821300983428955078e+00,6.482071876525878906e+00,5.441528797149658203e+00,4.944084167480468750e+00
-9.696446418762207031e+00,2.656455755233764648e+00,3.311426162719726562e+00,2.470183134078979492e+00,-5.017133951187133789e-01,-1.147423505783081055e+00,2.925659894943237305e+00,1.822731375694274902e+00,-5.638345479965209961e-01,-6.807347297668457031e+00,-4.296591281890869141e+00,-1.068121147155761719e+01,-1.638117027282714844e+01,-1.319173240661621094e+01,-1.393477535247802734e+01,-1.586071872711181641e+01,-1.977891159057617188e+01,-1.829965782165527344e+01,-1.510975074768066406e+01,-1.250684738159179688e+01,-1.384180355072021484e+01,-1.050966930389404297e+01,-6.745768070220947266e+00,-7.221510887145996094e+00,-5.575275421142578125e+00,-5.612273693084716797e+00,-9.015915870666503906e+00,-6.374155521392822266e+00,-2.309943199157714844e+00,3.866322755813598633e+00,5.272291183471679688e+00,-1.252146816253662109e+01
-7.171051025390625000e+00,1.235344529151916504e+00,-1.412537336349487305e+00,-1.096255660057067871e+00,-1.707124263048171997e-01,-2.336452752351760864e-01,-6.389894962310791016e+00,-1.657334685325622559e+00,-6.637082576751708984e+00,-3.027778148651123047e+00,-7.023765563964843750e+00,-1.185226798057556152e+00,-7.587902545928955078e+00,4.143162727355957031e+00,5.731383800506591797e+00,-8.273552060127258301e-01,-8.098902702331542969e+00,-6.601996421813964844e+00,2.564799785614013672e+00,2.670075654983520508e+00,-1.862200856208801270e+00,-6.774326324462890625e+00,-6.295240879058837891e+00,7.158259391784667969e+00,1.483171272277832031e+01,1.017787551879882812e+01,-5.585979938507080078e+00,-3.522926807403564453e+00,-3.543460607528686523e+00,1.814711928367614746e+00,6.343567371368408203e+00,2.138250827789306641e+00
9.976384162902832031e+00,1.516394233703613281e+01,1.150245285034179688e+01,8.575714111328125000e+00,7.737734317779541016e+00,1.331315994262695312e+01,7.539269924163818359e+00,9.170701980590820312e+00,-1.311128497123718262e+00,5.371814727783203125e+00,1.180704402923583984e+01,1.953843688964843750e+01,1.229328918457031250e+01,1.330308532714843750e+01,1.747179603576660156e+01,1.547087955474853516e+01,1.326018142700195312e+01,1.270771789550781250e+01,1.549667835235595703e+01,1.688489723205566406e+01,1.778534698486328125e+01,1.242926216125488281e+01,9.569051742553710938e+00,1.681723785400390625e+01,1.984239578247070312e+01,1.685892868041992188e+01,1.319623756408691406e+01,1.295429134368896484e+01,9.474539756774902344e+00,1.164495754241943359e+01,1.611704635620117188e+01,2.078111457824707031e+01
-1.029250144958496094e+00,3.829555988311767578e+00,2.624133110046386719e+00,-2.222508907318115234e+00,-4.823203563690185547e+00,3.262324810028076172e+00,8.257669448852539062e+00,4.060737133026123047e+00,3.937891244888305664e+00,-1.217613101005554199e+00,3.710487842559814453e+00,2.461168289184570312e+00,2.120692580938339233e-01,2.484065055847167969e+00,6.445780754089355469e+00,3.373308897018432617e+00,7.310141921043395996e-01,-1.549479126930236816e+00,2.315685987472534180e+00,4.743267059326171875e+00,3.911395549774169922e+00,7.493025064468383789e-01,-2.458364009857177734e+00,-4.734505116939544678e-01,3.083254337310791016e+00,3.579638957977294922e+00,-3.889771923422813416e-02,4.080505967140197754e-01,3.244023621082305908e-01,3.011400222778320312e+00,4.976922988891601562e+00,-5.102924823760986328e+00
-2.439051246643066406e+01,-2.435958099365234375e+01,-2.262833786010742188e+01,-2.223583030700683594e+01,-2.422824478149414062e+01,-2.517003250122070312e+01,-1.809340286254882812e+01,-1.964014244079589844e+01,-4.668882369995117188e+00,-8.918454170227050781e+00,-1.521304321289062500e+01,-2.288509941101074219e+01,-2.023316192626953125e+01,-1.274347591400146484e+01,-9.086090087890625000e+00,-1.291415691375732422e+01,-2.112810325622558594e+01,-2.431978034973144531e+01,-1.754783630371093750e+01,-1.512351799011230469e+01,-1.972435951232910156e+01,-2.755565834045410156e+01,-3.008876609802246094e+01,-1.984071159362792969e+01,-1.051655769348144531e+01,-1.181237125396728516e+01,-2.214444923400878906e+01,-2.525364494323730469e+01,-2.200002098083496094e+01,-1.703726768493652344e+01,-1.554408550262451172e+01,-2.896149635314941406e+01
-2.073379707336425781e+01,-1.829308509826660156e+01,-1.890235900878906250e+01,-1.478464031219482422e+01,-1.333082103729248047e+01,-1.859796714782714844e+01,-1.406264686584472656e+01,-1.204678916931152344e+01,-9.613131523132324219e+00,-9.025298118591308594e+00,-7.651752948760986328e+00,-1.122321224212646484e+01,-9.445851325988769531e+00,-4.620336532592773438e+00,1.479504227638244629e+00,-3.343765735626220703e+00,-9.971787452697753906e+00,-1.328173255920410156e+01,-8.237112045288085938e+00,-6.306107521057128906e+00,-9.277567863464355469e+00,-1.648784446716308594e+01,-1.977085494995117188e+01,-1.523535251617431641e+01,-8.686902046203613281e+00,-6.112713813781738281e+00,-1.396945953369140625e+01,-1.721745872497558594e+01,-1.959300422668457031e+01,-1.553545284271240234e+01,-7.876035213470458984e+00,-9.412668228149414062e+00
2.080420970916748047e+00,9.689257621765136719e+00,6.154652595520019531e+00,6.960506439208984375e+00,9.269343376159667969e+00,1.014357185363769531e+01,1.069934272766113281e+01,1.058030223846435547e+01,-7.245285511016845703e-01,-2.308841466903686523e+00,1.018598461151123047e+01,2.248815917968750000e+01,1.673948478698730469e+01,1.439992332458496094e+01,1.368399810791015625e+01,1.169773292541503906e+01,1.228779220581054688e+01,1.113620758056640625e+01,1.592499256134033203e+01,1.954230308532714844e+01,1.964833259582519531e+01,1.171942424774169922e+01,7.748120307922363281e+00,5.165236949920654297e+00,1.915020585060119629e+00,3.313728570938110352e+00,5.128412246704101562e+00,4.470951080322265625e+00,-1.132142305374145508e+00,1.640721112489700317e-01,1.082386207580566406e+01,2.392732429504394531e+01
1.463670444488525391e+01,1.586835002899169922e+01,1.366526412963867188e+01,1.184225082397460938e+01,1.299147224426269531e+01,1.605012893676757812e+01,5.841711521148681641e+00,1.479882597923278809e+00,5.656895160675048828e+00,9.725160598754882812e+00,1.293631172180175781e+01,1.549890422821044922e+01,1.069497871398925781e+01,9.142486572265625000e+00,1.393914222717285156e+01,1.646407508850097656e+01,1.747160911560058594e+01,1.449784564971923828e+01,1.289061450958251953e+01,1.421302509307861328e+01,1.435681056976318359e+01,1.627483940124511719e+01,1.452177906036376953e+01,1.630652999877929688e+01,9.785067558288574219e+00,7.749292850494384766e+00,4.759709835052490234e+00,1.115992546081542969e+01,1.318055534362792969e+01,1.229923629760742188e+01,1.209922885894775391e+01,1.227628040313720703e+01
1.229708862304687500e+01,1.056463050842285156e+01,9.710533142089843750e+00,7.328139305114746094e+00,8.366755485534667969e+00,1.051626491546630859e+01,9.396784901618957520e-01,-7.786587715148925781e+00,3.335155487060546875e+00,1.262528133392333984e+01,7.541378498077392578e+00,9.047482013702392578e-01,3.171354055404663086e+00,5.713796138763427734e+00,1.240537071228027344e+01,1.434939479827880859e+01,1.293279075622558594e+01,9.380037307739257812e+00,6.478850841522216797e+00,2.811092615127563477e+00,4.193253040313720703e+00,8.828552246093750000e+00,9.197261810302734375e+00,1.171362209320068359e+01,4.826903343200683594e+00,4.530014514923095703e+00,4.078297615051269531e+00,1.067118263244628906e+01,1.590576839447021484e+01,1.366459751129150391e+01,5.776435852050781250e+00,-6.321828365325927734e+00
1.003458213806152344e+01,9.691540718078613281e+00,5.080301284790039062e+00,4.246577739715576172e+00,8.992766380310058594e+00,1.434189605712890625e+01,1.601096153259277344e+01,7.254968643188476562e+00,-4.657357215881347656e+00,1.721349596977233887e+00,4.711867809295654297e+00,9.303423881530761719e+00,5.448832511901855469e+00,4.007639408111572266e+00,3.834666728973388672e+00,6.257040977478027344e+00,6.992271423339843750e+00,6.794756412506103516e+00,9.443068504333496094e+00,1.000712680816650391e+01,8.194856643676757812e+00,7.589749336242675781e+00,9.424165725708007812e+00,7.160801887512207031e+00,-4.422774314880371094e+00,-3.646845340728759766e+00,4.699948310852050781e+00,1.051929187774658203e+01,8.878865242004394531e+00,2.366666793823242188e+00,-3.518567979335784912e-01,8.936890959739685059e-01
2.219046831130981445e+00,-3.928855657577514648e-01,-7.021547317504882812e+00,-5.064568519592285156e+00,2.410297870635986328e+00,8.241963386535644531e+00,6.890827178955078125e+00,1.835559010505676270e+00,-8.102440834045410156e+00,-3.831975221633911133e+00,1.252905130386352539e+00,7.752511978149414062e+00,-4.025192260742187500e-01,-1.667650818824768066e+00,-5.874794006347656250e+00,-4.052242755889892578e+00,-2.512912511825561523e+00,-1.013399362564086914e-01,2.791095256805419922e+00,2.947982788085937500e+00,4.863866418600082397e-02,1.253654360771179199e+00,7.156157016754150391e+00,-4.875120639801025391e+00,-1.797883987426757812e+01,-1.610334396362304688e+01,-4.687628448009490967e-01,4.356947422027587891e+00,-8.059887290000915527e-01,-8.283668518066406250e+00,-1.014286327362060547e+01,-2.701489686965942383e+00
-5.798119068145751953e+00,-9.881694793701171875e+00,-1.094140338897705078e+01,-9.025245666503906250e+00,-5.088461875915527344e+00,-3.498658657073974609e+00,-7.681213378906250000e+00,-1.141706466674804688e+01,-2.788203716278076172e+00,9.850976467132568359e-01,-2.994839429855346680e+00,-5.932072162628173828e+00,-6.724656105041503906e+00,-5.661252975463867188e+00,-4.593434810638427734e+00,-2.794204950332641602e+00,-4.907508373260498047e+00,-5.748676776885986328e+00,-5.230602741241455078e+00,-6.840605258941650391e+00,-9.245428085327148438e+00,-5.754261970520019531e+00,-2.984628677368164062e+00,-4.486221790313720703e+00,-1.033546924591064453e+01,-1.006140899658203125e+01,-8.208733558654785156e+00,-4.156622409820556641e+00,-5.058612823486328125e+00,-7.821876525878906250e+00,-1.584290218353271484e+01,-2.188673210144042969e+01
6.594135761260986328e+00,5.870704174041748047e+00,6.260079860687255859e+00,7.597565174102783203e+00,8.757716178894042969e+00,8.360342979431152344e+00,1.188251209259033203e+01,6.012947559356689453e+00,5.549140930175781250e+00,1.451112151145935059e+00,2.750509023666381836e+00,4.419085502624511719e+00,3.846161365509033203e+00,1.393666148185729980e+00,6.013971805572509766e+00,1.151524066925048828e+01,9.209434509277343750e+00,7.014345169067382812e+00,6.940682411193847656e+00,7.510717391967773438e+00,6.009825706481933594e+00,7.343692302703857422e+00,6.817768573760986328e+00,9.652527809143066406e+00,2.442941904067993164e+00,8.523673415184020996e-01,7.388162016868591309e-01,7.504969596862792969e+00,9.119756698608398438e+00,3.569756984710693359e+00,-4.246329784393310547e+00,-1.233789920806884766e+01
1.436769866943359375e+01,1.068955135345458984e+01,5.112608432769775391e+00,9.054983139038085938e+00,1.481642150878906250e+01,1.458878421783447266e+01,1.806411743164062500e+01,1.160120010375976562e+01,7.028799057006835938e+00,6.456623077392578125e+00,1.157840633392333984e+01,1.507486343383789062e+01,1.074032497406005859e+01,6.138883113861083984e+00,4.936989784240722656e+00,9.468657493591308594e+00,1.256350421905517578e+01,1.246273994445800781e+01,1.122016334533691406e+01,9.374892234802246094e+00,8.343180656433105469e+00,1.097628116607666016e+01,1.315354824066162109e+01,8.745785713195800781e+00,-2.952304363250732422e+00,-4.213852405548095703e+00,2.570045709609985352e+00,1.216114711761474609e+01,1.221412467956542969e+01,2.060000658035278320e+00,-3.245013713836669922e+00,5.966825485229492188e+00
-3.871555805206298828e+00,-1.111961078643798828e+01,-1.735785675048828125e+01,-1.378034114837646484e+01,-3.420229911804199219e+00,-3.103494644165039062e+00,-9.138333320617675781e+00,-1.153132724761962891e+01,-3.745561361312866211e+00,5.868969917297363281e+00,3.010948896408081055e+00,-3.797085762023925781e+00,-4.143928050994873047e+00,-6.083437442779541016e+00,-9.031427383422851562e+00,-6.537991523742675781e+00,-3.177206993103027344e+00,-3.523868322372436523e+00,-4.361958980560302734e+00,-9.239027023315429688e+00,-1.159016895294189453e+01,-9.194595336914062500e+00,-9.041846275329589844e+00,-6.422544002532958984e+00,-1.258065032958984375e+01,-1.329305839538574219e+01,-1.581156730651855469e+01,-9.413888931274414062e+00,-8.970737457275390625e+00,-1.359469604492187500e+01,-2.088937377929687500e+01,-1.089481639862060547e+01
-4.129035949707031250e+00,-3.489844322204589844e+00,-4.546400547027587891e+00,-6.041713237762451172e+00,-1.988904595375061035e+00,-2.645307540893554688e+00,-7.181856036186218262e-01,1.113778948783874512e+00,-2.613237380981445312e+00,-4.265643119812011719e+00,-3.289243459701538086e+00,-2.643610954284667969e+00,-2.556436061859130859e+00,-1.329904317855834961e+00,-7.508196830749511719e-01,2.245438098907470703e+00,6.518816947937011719e-01,5.692979693412780762e-01,1.354768514633178711e+00,1.425116181373596191e+00,7.442086338996887207e-01,-4.548229277133941650e-01,-1.407168626785278320e+00,9.598467946052551270e-01,-4.643015861511230469e+00,-4.851448535919189453e+00,-1.330965399742126465e+00,-1.095305800437927246e+00,-1.404193878173828125e+00,-3.410006284713745117e+00,-9.615824699401855469e+00,-1.437344646453857422e+01
2.081253433227539062e+01,2.535157394409179688e+01,2.229835510253906250e+01,1.971728324890136719e+01,1.789640045166015625e+01,1.973796653747558594e+01,2.906507492065429688e+01,2.322155952453613281e+01,9.626102447509765625e+00,3.966332972049713135e-01,1.154294109344482422e+01,2.728486824035644531e+01,2.374852180480957031e+01,1.916515731811523438e+01,1.554476833343505859e+01,1.903375244140625000e+01,1.920966720581054688e+01,1.917006492614746094e+01,1.720394706726074219e+01,2.096346473693847656e+01,2.407064628601074219e+01,2.624325752258300781e+01,2.799460029602050781e+01,1.947540092468261719e+01,8.847605705261230469e+00,1.090319633483886719e+01,2.151036643981933594e+01,2.323955345153808594e+01,2.070465850830078125e+01,2.072386932373046875e+01,1.650118064880371094e+01,1.357686710357666016e+01
1.650567626953125000e+01,1.751560592651367188e+01,1.260082054138183594e+01,1.041735267639160156e+01,1.716860580444335938e+01,2.119552803039550781e+01,1.689052772521972656e+01,1.471190071105957031e+01,7.858041286468505859e+00,9.897667884826660156e+00,1.506915664672851562e+01,1.886920356750488281e+01,1.670751380920410156e+01,1.327286815643310547e+01,1.354141807556152344e+01,1.769090461730957031e+01,2.282397270202636719e+01,2.111082077026367188e+01,1.864385795593261719e+01,1.570898246765136719e+01,1.854848098754882812e+01,1.984140014648437500e+01,1.881251716613769531e+01,1.833251953125000000e+01,1.216602134704589844e+01,9.860432624816894531e+00,1.420772743225097656e+01,1.607465744018554688e+01,1.640652465820312500e+01,1.463218021392822266e+01,8.405167579650878906e+00,8.493597030639648438e+00
-9.576164245605468750e+00,-7.204399108886718750e+00,-1.194449424743652344e+01,-1.297355461120605469e+01,-5.576370716094970703e+00,-5.187243938446044922e+00,-8.928855895996093750e+00,-1.141218185424804688e+01,-2.393669605255126953e+00,2.456446886062622070e+00,-1.242926791310310364e-01,-9.174428939819335938e+00,-9.256133079528808594e+00,-7.444083690643310547e+00,-3.934991359710693359e+00,-1.132644057273864746e+00,6.359030306339263916e-02,-2.735496044158935547e+00,-5.807816982269287109e+00,-4.027928352355957031e+00,-9.515703916549682617e-01,-3.830320835113525391e+00,-9.207261085510253906e+00,9.611945152282714844e-01,2.792207479476928711e+00,-4.341862678527832031e+00,-7.700794696807861328e+00,-1.030327224731445312e+01,-7.785054206848144531e+00,-9.683821678161621094e+00,-1.340039920806884766e+01,-6.230646133422851562e+00
-7.007280349731445312e+00,-2.579226255416870117e+00,-1.401713132858276367e+00,-4.501260757446289062e+00,-4.299241065979003906e+00,-8.783362388610839844e+00,-1.023477172851562500e+01,-5.216635227203369141e+00,-2.407580137252807617e+00,-4.694288730621337891e+00,-8.478948593139648438e+00,-9.431686401367187500e+00,-6.733767032623291016e+00,-3.089299201965332031e+00,-4.044861793518066406e+00,-6.747284889221191406e+00,-9.900322914123535156e+00,-8.598175048828125000e+00,-7.740958213806152344e+00,3.489494025707244873e-01,1.794794440269470215e+00,-1.393380880355834961e+00,-2.780948877334594727e+00,-1.480393052101135254e+00,-2.308170557022094727e+00,-3.183100461959838867e+00,2.208039045333862305e+00,-2.843087911605834961e+00,-5.326280117034912109e+00,-4.372748374938964844e+00,-1.296774506568908691e+00,1.206458663940429688e+01
9.197207450866699219e+00,9.562859535217285156e+00,9.494829177856445312e+00,7.061965465545654297e+00,6.797166824340820312e+00,4.495108127593994141e+00,2.386382818222045898e+00,6.821169853210449219e+00,1.324417304992675781e+01,6.049748897552490234e+00,1.147821545600891113e+00,7.949460744857788086e-01,7.419456005096435547e+00,7.198192596435546875e+00,5.435996055603027344e+00,-3.691695928573608398e-01,4.024695396423339844e+00,7.796982288360595703e+00,1.020002460479736328e+01,1.056354713439941406e+01,9.630395889282226562e+00,9.098141670227050781e+00,1.373721218109130859e+01,-4.447685718536376953e+00,-1.295228481292724609e+01,-2.942578077316284180e+00,1.876842498779296875e+01,1.392643260955810547e+01,1.019666194915771484e+01,1.348339271545410156e+01,1.170664691925048828e+01,1.621798515319824219e+01
4.210459232330322266e+00,6.023303985595703125e+00,6.259407043457031250e+00,2.162159919738769531e+00,-1.169990226626396179e-01,9.017435908317565918e-01,9.336360096931457520e-01,4.307145774364471436e-01,7.692399024963378906e+00,4.616973400115966797e+00,3.409715652465820312e+00,-4.230360388755798340e-01,5.018773078918457031e-01,1.786116480827331543e+00,5.686810016632080078e+00,3.588202476501464844e+00,4.850492954254150391e+00,3.170809984207153320e+00,4.319926798343658447e-01,-2.166948080062866211e+00,3.863583207130432129e-01,2.123513936996459961e+00,2.902136087417602539e+00,2.235536575317382812e+00,-3.623511791229248047e-01,-1.364006519317626953e+00,5.642811775207519531e+00,4.398261547088623047e+00,6.631775856018066406e+00,5.952942848205566406e+00,-3.213340044021606445e+00,-4.601106166839599609e+00
-1.937668204307556152e+00,1.058566868305206299e-01,1.079490780830383301e-01,-5.382626056671142578e-01,-1.743394732475280762e+00,6.232895851135253906e-01,5.400761127471923828e+00,3.991928339004516602e+00,-8.222032546997070312e+00,-6.395912170410156250e+00,-2.404164314270019531e+00,3.062577247619628906e+00,-2.548415660858154297e+00,-9.719802737236022949e-01,2.144328594207763672e+00,9.751840233802795410e-01,-5.112260818481445312e+00,-7.234425544738769531e+00,-1.041546916961669922e+01,-1.016073703765869141e+01,-6.860939979553222656e+00,-6.662118434906005859e+00,-1.013286876678466797e+01,7.408629894256591797e+00,8.686084747314453125e+00,-1.298648595809936523e+00,-1.063053703308105469e+01,-7.953402996063232422e+00,-1.807468652725219727e+00,-4.285756111145019531e+00,-1.192268466949462891e+01,-9.520233154296875000e+00
-3.335742473602294922e+00,-2.602865457534790039e+00,-9.249562263488769531e+00,-5.988159656524658203e+00,1.475248456001281738e+00,4.441388130187988281e+00,4.610068321228027344e+00,5.450100421905517578e+00,-5.382592678070068359e+00,-4.386955738067626953e+00,-7.246017456054687500e+00,-1.433609843254089355e+00,1.241322398185729980e+00,-4.964646339416503906e+00,-7.792836666107177734e+00,-1.340787792205810547e+01,-1.363805389404296875e+01,-1.147927761077880859e+01,-8.798943519592285156e+00,-9.858816146850585938e+00,-1.189266490936279297e+01,-1.409965705871582031e+01,-1.404533004760742188e+01,-8.697569847106933594e+00,-7.211788654327392578e+00,-8.304949760437011719e+00,-6.525506973266601562e+00,-1.160722541809082031e+01,-8.698314666748046875e+00,-3.835744380950927734e+00,-5.291698932647705078e+00,-6.630600929260253906e+00
-1.176160931587219238e+00,1.090282678604125977e+00,-5.517909526824951172e+00,-6.881143093109130859e+00,-2.423398494720458984e+00,-1.413435578346252441e+00,-2.536453723907470703e+00,-4.528352022171020508e-01,5.392418384552001953e+00,2.802491903305053711e+00,-1.974122971296310425e-01,-4.112831115722656250e+00,1.726243853569030762e+00,-3.264461755752563477e+00,-7.561585426330566406e+00,-1.320952892303466797e+01,-8.456177711486816406e+00,-7.862237930297851562e+00,-6.731000423431396484e+00,-9.909398078918457031e+00,-1.067878532409667969e+01,-1.074519920349121094e+01,-8.845626831054687500e+00,-1.288678169250488281e+01,-1.222575283050537109e+01,-7.485488891601562500e+00,-2.665454626083374023e+00,-7.895260810852050781e+00,-1.048979759216308594e+01,-3.858849048614501953e+00,9.592794179916381836e-01,1.776731491088867188e+00
7.804465293884277344e+00,7.324882984161376953e+00,8.886567115783691406e+00,4.629668712615966797e+00,-2.369072675704956055e+00,-2.518392562866210938e+00,-8.358235955238342285e-01,2.948423027992248535e-01,-1.161174535751342773e+00,2.980173826217651367e+00,1.162798404693603516e+01,1.379378032684326172e+01,7.158123970031738281e+00,9.870383262634277344e+00,9.596828460693359375e+00,7.323649883270263672e+00,7.679615020751953125e+00,6.657255172729492188e+00,4.910731792449951172e+00,2.263539075851440430e+00,4.989387035369873047e+00,5.747577667236328125e+00,4.192426681518554688e+00,1.569420814514160156e+00,-7.571142911911010742e-01,-4.658942520618438721e-01,2.409326076507568359e+00,3.759942770004272461e+00,-7.951750606298446655e-02,-6.263841986656188965e-01,3.631986856460571289e+00,1.712736701965332031e+01
4.095618247985839844e+00,-5.098365306854248047e+00,-5.954166650772094727e-01,-2.684684514999389648e+00,-7.442874431610107422e+00,-7.522128105163574219e+00,-6.149514675140380859e+00,-1.106960296630859375e+00,-7.576624393463134766e+00,-7.269552230834960938e+00,-1.567562341690063477e+00,6.352982997894287109e+00,4.182139396667480469e+00,6.287135601043701172e+00,6.459818840026855469e+00,3.624958276748657227e+00,2.513409137725830078e+00,2.136046171188354492e+00,3.707683086395263672e-01,-2.151939570903778076e-01,3.403046131134033203e+00,5.522212982177734375e+00,2.646259546279907227e+00,-3.081816673278808594e+00,-9.080457687377929688e+00,-7.184477329254150391e+00,-1.138788819313049316e+00,6.516383886337280273e-01,-8.524044752120971680e-01,-2.618375539779663086e+00,-3.357326269149780273e+00,3.234684944152832031e+00
-1.410664558410644531e+01,-2.047821426391601562e+01,-1.684533500671386719e+01,-1.877894020080566406e+01,-1.882711601257324219e+01,-2.286778259277343750e+01,-1.420751571655273438e+01,-1.686647772789001465e+00,4.068056583404541016e+00,-4.114226818084716797e+00,-7.702744483947753906e+00,-1.447578334808349609e+01,-1.110916233062744141e+01,-1.062920570373535156e+01,-1.276273250579833984e+01,-1.318004322052001953e+01,-1.098832893371582031e+01,-8.157776832580566406e+00,-9.723261833190917969e+00,-8.409638404846191406e+00,-2.318122625350952148e+00,-8.829789757728576660e-01,-4.329676628112792969e+00,-8.341830253601074219e+00,-9.038308143615722656e+00,-9.646152496337890625e+00,-1.078086757659912109e+01,-1.278044414520263672e+01,-1.317209625244140625e+01,-9.631301879882812500e+00,-8.664555549621582031e+00,-2.342467308044433594e+01
-1.622115516662597656e+01,-1.164001083374023438e+01,-7.310718059539794922e+00,-6.518882274627685547e+00,-1.207148647308349609e+01,-1.712544822692871094e+01,5.574742704629898071e-02,9.009284973144531250e+00,9.906025886535644531e+00,2.277549028396606445e+00,2.099850416183471680e+00,-5.019488811492919922e+00,-4.185101509094238281e+00,-4.485223770141601562e+00,-5.709244251251220703e+00,-5.694198608398437500e-01,3.825401782989501953e+00,7.159389495849609375e+00,5.172211647033691406e+00,2.332396745681762695e+00,7.145277976989746094e+00,7.678147315979003906e+00,6.522774219512939453e+00,3.754216432571411133e+00,6.110590934753417969e+00,2.075721979141235352e+00,-1.555338621139526367e+00,-5.894077777862548828e+00,-5.608737945556640625e+00,-2.466169834136962891e+00,1.782456159591674805e+00,-1.306579494476318359e+01
-3.014627099037170410e-01,9.740713834762573242e-01,2.398599311709403992e-02,3.628337621688842773e+00,4.093408882617950439e-01,9.130450338125228882e-02,7.671501159667968750e+00,8.010371208190917969e+00,-7.972480058670043945e-01,3.543613195419311523e+00,8.948121070861816406e+00,1.255091857910156250e+01,1.096015930175781250e+01,9.009978294372558594e+00,9.730102539062500000e+00,1.294664096832275391e+01,1.755455589294433594e+01,1.477511596679687500e+01,1.351965904235839844e+01,5.880288600921630859e+00,6.878269672393798828e+00,9.306680679321289062e+00,1.134900188446044922e+01,7.029763221740722656e+00,5.909494876861572266e+00,6.037499904632568359e+00,8.205494880676269531e+00,6.541826725006103516e+00,9.424098968505859375e+00,5.150362014770507812e+00,4.198857307434082031e+00,6.999186515808105469e+00
9.079352378845214844e+00,1.280026137828826904e-01,-5.582755088806152344e+00,-3.121457815170288086e+00,3.749352931976318359e+00,2.355868101119995117e+00,4.513843655586242676e-01,9.640781283378601074e-01,2.858454942703247070e+00,-3.124288022518157959e-01,-2.998086690902709961e+00,-5.972886085510253906e-01,1.037853240966796875e+00,-1.202643632888793945e+00,2.330596923828125000e+00,5.305686473846435547e+00,4.770071983337402344e+00,-1.042069077491760254e+00,-1.162281870841979980e+00,-1.633322119712829590e+00,2.844770252704620361e-01,1.053341507911682129e+00,-1.065070390701293945e+00,5.983717441558837891e+00,8.410856246948242188e+00,7.390714645385742188e+00,4.478645801544189453e+00,5.729085445404052734e+00,7.895657539367675781e+00,1.173076629638671875e+00,-2.801790952682495117e+00,3.262660264968872070e+00
3.246667385101318359e+00,4.886198520660400391e+00,1.449735641479492188e+00,1.964924216270446777e+00,7.368794441223144531e+00,3.063649892807006836e+00,6.920384407043457031e+00,1.039264488220214844e+01,1.265731143951416016e+01,-5.988779544830322266e+00,-1.051914787292480469e+01,-8.631281852722167969e+00,-6.650625705718994141e+00,-4.252842903137207031e+00,-2.217602968215942383e+00,-6.458982825279235840e-03,-5.822376728057861328e+00,-7.130393028259277344e+00,-6.473400115966796875e+00,-1.324559807777404785e+00,1.366602063179016113e+00,-1.770080775022506714e-01,-5.038198947906494141e+00,2.908743619918823242e+00,9.199659347534179688e+00,1.044955635070800781e+01,7.265700817108154297e+00,6.563699245452880859e+00,5.635784626007080078e+00,5.276312828063964844e+00,4.673699855804443359e+00,-1.649247050285339355e+00
-9.963629722595214844e+00,6.247728347778320312e+00,7.293960571289062500e+00,4.547363758087158203e+00,2.932379543781280518e-01,-6.766536235809326172e-01,-1.692485451698303223e+00,2.057511329650878906e+00,-3.357004642486572266e+00,-2.059334963560104370e-01,2.261011675000190735e-02,-2.353671938180923462e-01,-4.765775203704833984e+00,3.391948461532592773e+00,-1.556914806365966797e+00,-8.596096038818359375e+00,-1.337506103515625000e+01,-9.186186790466308594e+00,-4.827869415283203125e+00,-1.775485157966613770e+00,-2.924979209899902344e+00,-6.873460292816162109e+00,-8.920189857482910156e+00,-1.145530986785888672e+01,-6.997128009796142578e+00,2.486121416091918945e+00,5.585304737091064453e+00,1.317077398300170898e+00,1.912503600120544434e+00,8.775640487670898438e+00,9.359851837158203125e+00,-2.617196083068847656e+00
-1.197017955780029297e+01,-5.035280227661132812e+00,-3.279812633991241455e-01,-4.523797035217285156e+00,-8.642314910888671875e+00,-1.321873855590820312e+01,-1.994711494445800781e+01,-1.357700347900390625e+01,-1.138947248458862305e+00,5.144155502319335938e+00,-6.128550529479980469e+00,-1.524081802368164062e+01,-1.130833911895751953e+01,-7.893159389495849609e+00,-1.398309135437011719e+01,-2.086399841308593750e+01,-2.312825393676757812e+01,-1.923730087280273438e+01,-1.307774162292480469e+01,-8.271165847778320312e+00,-8.872164726257324219e+00,-1.510359382629394531e+01,-1.663364219665527344e+01,-1.272482395172119141e+01,-6.584383487701416016e+00,-1.578382730484008789e+00,-6.990701675415039062e+00,-1.105802345275878906e+01,-1.038344287872314453e+01,-2.264148235321044922e+00,1.199368238449096680e+00,-2.970785140991210938e+00
-6.219896674156188965e-01,-2.895307302474975586e+00,8.044503927230834961e-01,3.821241378784179688e+00,2.328935146331787109e+00,-5.780457019805908203e+00,-1.136001968383789062e+01,-6.464826583862304688e+00,1.198403167724609375e+01,6.522755622863769531e+00,-6.805880546569824219e+00,-1.413979244232177734e+01,-6.088609695434570312e+00,-9.599524497985839844e+00,-1.255577850341796875e+01,-1.044022178649902344e+01,-1.095082473754882812e+01,-1.036770057678222656e+01,-8.239275932312011719e+00,-1.789477944374084473e+00,9.829004406929016113e-01,-2.895555257797241211e+00,-5.189275741577148438e+00,1.331973791122436523e+00,8.200228691101074219e+00,6.673280715942382812e+00,-2.475931167602539062e+00,-4.932900428771972656e+00,-6.730032920837402344e+00,-1.311220407485961914e+00,4.876527309417724609e+00,7.848276138305664062e+00
4.396201610565185547e+00,3.851555824279785156e+00,4.485501289367675781e+00,1.137203502655029297e+01,5.143670558929443359e+00,4.857707977294921875e+00,6.288579940795898438e+00,7.034428119659423828e+00,4.087899684906005859e+00,-3.857390582561492920e-01,4.443583011627197266e+00,8.482179641723632812e+00,4.881208896636962891e+00,4.790409564971923828e+00,4.630111694335937500e+00,6.387252807617187500e+00,7.016905784606933594e+00,5.747099399566650391e+00,3.482276678085327148e+00,2.152703523635864258e+00,4.120679855346679688e+00,5.786917209625244141e+00,5.190117359161376953e+00,2.366806030273437500e+00,5.169089794158935547e+00,7.027747154235839844e+00,7.053226470947265625e+00,4.515581607818603516e+00,3.290500402450561523e+00,6.470077037811279297e+00,9.283065795898437500e+00,3.780718326568603516e+00
-3.515327930450439453e+00,-1.149798107147216797e+01,-4.572060108184814453e+00,-1.130240082740783691e+00,-8.059574127197265625e+00,-7.914636611938476562e+00,-4.381895542144775391e+00,-2.504482984542846680e+00,-9.859084129333496094e+00,-9.719148635864257812e+00,-3.939146757125854492e+00,-1.647934317588806152e+00,-7.382198333740234375e+00,-2.895461082458496094e+00,-1.142881989479064941e+00,-8.793421983718872070e-01,-3.205494403839111328e+00,-4.615605354309082031e+00,-7.525180339813232422e+00,-1.316773509979248047e+01,-1.302854537963867188e+01,-9.549484252929687500e+00,-8.668014526367187500e+00,-9.537317276000976562e+00,-7.420683860778808594e+00,-5.130438327789306641e+00,-6.444300651550292969e+00,-1.059879589080810547e+01,-1.118902873992919922e+01,-6.856272697448730469e+00,-3.199695587158203125e+00,-1.853633880615234375e+01
-1.655008316040039062e+01,-2.344552803039550781e+01,-8.259115219116210938e+00,-1.025074195861816406e+01,-1.687192726135253906e+01,-2.490474891662597656e+01,-2.355881500244140625e+01,-1.635054206848144531e+01,-4.087600231170654297e+00,-7.094077110290527344e+00,-1.554038715362548828e+01,-2.032274818420410156e+01,-1.577785682678222656e+01,-1.543750667572021484e+01,-1.710659217834472656e+01,-1.327376365661621094e+01,-1.540125465393066406e+01,-1.564715480804443359e+01,-1.664114379882812500e+01,-1.671783638000488281e+01,-1.684248924255371094e+01,-1.742220115661621094e+01,-1.868588066101074219e+01,-1.407966136932373047e+01,-7.925806045532226562e+00,-8.159951210021972656e+00,-1.702297401428222656e+01,-2.268559074401855469e+01,-2.560937118530273438e+01,-1.870429039001464844e+01,-7.268083095550537109e+00,-1.227535533905029297e+01
-1.249029254913330078e+01,-8.576213836669921875e+00,-2.967606067657470703e+00,-8.437092602252960205e-02,-3.251807928085327148e+00,-9.472462654113769531e+00,-8.825637817382812500e+00,-5.246794700622558594e+00,1.502233386039733887e+00,3.837381839752197266e+00,-3.041462898254394531e+00,-8.355443954467773438e+00,-4.971606731414794922e+00,-6.315907001495361328e+00,-8.189851760864257812e+00,-6.677924156188964844e+00,-5.571698188781738281e+00,-4.808776855468750000e+00,-4.723441123962402344e+00,-3.094969749450683594e+00,-1.631773471832275391e+00,-1.828904032707214355e+00,-4.256135940551757812e+00,-4.635047435760498047e+00,-8.128783106803894043e-01,1.881690740585327148e+00,-1.469695806503295898e+00,-5.116625785827636719e+00,-1.137399768829345703e+01,-7.429287910461425781e+00,3.291278123855590820e+00,9.998872756958007812e+00
9.434304237365722656e+00,7.100031852722167969e+00,-1.758410036563873291e-01,9.711319923400878906e+00,1.488724422454833984e+01,1.659618949890136719e+01,1.723063468933105469e+01,1.302734470367431641e+01,5.248026847839355469e-01,4.998209476470947266e+00,8.547550201416015625e+00,1.003666114807128906e+01,6.399726867675781250e+00,7.519170761108398438e+00,1.105446529388427734e+01,9.834910392761230469e+00,9.122497558593750000e+00,9.217009544372558594e+00,8.847154617309570312e+00,8.240893363952636719e+00,1.112685298919677734e+01,1.169029331207275391e+01,9.159359931945800781e+00,1.081984806060791016e+01,1.260297679901123047e+01,1.264554595947265625e+01,1.083978557586669922e+01,9.173257827758789062e+00,7.874754905700683594e+00,7.178726196289062500e+00,9.726984977722167969e+00,8.704520225524902344e+00
9.356090545654296875e+00,6.311983585357666016e+00,4.853861331939697266e+00,9.950276374816894531e+00,1.543985939025878906e+01,1.802559471130371094e+01,2.021505928039550781e+01,1.466735839843750000e+01,3.670265674591064453e+00,5.418146252632141113e-01,6.093483924865722656e+00,1.027824687957763672e+01,6.833617210388183594e+00,8.672966957092285156e+00,1.081192016601562500e+01,1.016379737854003906e+01,7.124151229858398438e+00,7.465966224670410156e+00,1.046375656127929688e+01,1.204778766632080078e+01,1.335205936431884766e+01,8.102669715881347656e+00,3.188548326492309570e+00,1.332893466949462891e+01,1.625241279602050781e+01,1.350692558288574219e+01,4.197114944458007812e+00,1.512010097503662109e+00,3.699135780334472656e+00,3.156326055526733398e+00,4.982156753540039062e+00,2.880118370056152344e+00
-1.706284904479980469e+01,-3.078489780426025391e+00,4.926467418670654297e+00,2.588762283325195312e+00,-2.796596765518188477e+00,-6.202111721038818359e+00,-4.817049980163574219e+00,-4.505548954010009766e+00,3.164273977279663086e+00,-1.450530886650085449e-01,-5.014544963836669922e+00,-1.339628601074218750e+01,-1.136644458770751953e+01,-6.472402572631835938e+00,-5.111696243286132812e+00,-9.752844810485839844e+00,-1.329478836059570312e+01,-1.012146663665771484e+01,-1.745182871818542480e+00,-8.038225769996643066e-01,-1.882516622543334961e+00,-7.585149765014648438e+00,-1.157503032684326172e+01,-6.904088497161865234e+00,-3.376498222351074219e+00,8.668243139982223511e-02,-4.654381275177001953e+00,-8.757301330566406250e+00,-1.310904026031494141e+01,-1.312167263031005859e+01,-8.822616577148437500e+00,2.382008790969848633e+00
-2.648696136474609375e+01,-8.918888092041015625e+00,-4.721593856811523438e+00,-9.115545272827148438e+00,-1.579299831390380859e+01,-2.048215293884277344e+01,-2.021805953979492188e+01,-1.611721992492675781e+01,-1.281589746475219727e+00,-4.293658256530761719e+00,-1.416563034057617188e+01,-2.351595497131347656e+01,-1.986405563354492188e+01,-1.207177352905273438e+01,-1.092551326751708984e+01,-1.851145553588867188e+01,-2.503877449035644531e+01,-2.067763137817382812e+01,-1.398736476898193359e+01,-1.419664287567138672e+01,-1.498098564147949219e+01,-1.568034172058105469e+01,-1.568616390228271484e+01,-1.852306365966796875e+01,-1.451213169097900391e+01,-5.903601646423339844e+00,-3.346550464630126953e+00,-9.550259590148925781e+00,-1.004479408264160156e+01,-9.184638977050781250e+00,-1.010942649841308594e+01,-4.215382099151611328e+00
-7.218124866485595703e+00,-3.080226778984069824e-01,-4.955964088439941406e+00,-8.847733497619628906e+00,-2.394729852676391602e+00,9.786639213562011719e-01,-1.496848344802856445e+00,-3.761851310729980469e+00,-3.978052377700805664e+00,2.480202674865722656e+00,1.429043412208557129e+00,-2.475154161453247070e+00,-1.970021128654479980e+00,1.940433263778686523e+00,3.107763051986694336e+00,-2.202969074249267578e+00,-4.805808544158935547e+00,-3.234908103942871094e+00,-3.346468925476074219e+00,-2.084313631057739258e+00,5.941446870565414429e-02,-2.883560955524444580e-01,-2.158515155315399170e-01,-7.553006172180175781e+00,-3.959429502487182617e+00,6.593579053878784180e-01,5.756002426147460938e+00,-8.972713947296142578e-01,7.304155349731445312e+00,1.198332595825195312e+01,9.492286682128906250e+00,-2.655295848846435547e+00
4.491795539855957031e+00,3.515416383743286133e+00,-9.798620343208312988e-01,-1.824687600135803223e+00,7.702794075012207031e+00,1.339219093322753906e+01,9.386750221252441406e+00,2.422545433044433594e+00,-1.069642424583435059e+00,2.593633651733398438e+00,5.750288009643554688e+00,1.048921585083007812e+01,7.997255325317382812e+00,6.319746494293212891e+00,1.132231807708740234e+01,1.096119976043701172e+01,1.230257415771484375e+01,1.144793796539306641e+01,1.139542961120605469e+01,7.920041084289550781e+00,8.522056579589843750e+00,6.833573341369628906e+00,6.173804759979248047e+00,-4.338373661041259766e+00,-2.788902759552001953e+00,-4.581292867660522461e-01,5.179738044738769531e+00,1.759243488311767578e+00,2.945210933685302734e-01,7.179238796234130859e+00,1.037764930725097656e+01,-2.361315488815307617e+00
-1.209795188903808594e+01,-1.363000679016113281e+01,-1.241012477874755859e+01,-1.218382072448730469e+01,-1.293233776092529297e+01,-1.017639446258544922e+01,-1.397866249084472656e+01,-1.232291698455810547e+01,-9.314237594604492188e+00,-1.175974655151367188e+01,-1.217788124084472656e+01,-9.174826622009277344e+00,-8.902910232543945312e+00,-8.889234542846679688e+00,-3.794130325317382812e+00,-3.088997840881347656e+00,-4.053211688995361328e+00,-4.656976699829101562e+00,-2.345198392868041992e+00,-8.125020980834960938e+00,-1.271967601776123047e+01,-1.520634269714355469e+01,-1.636969757080078125e+01,-1.380619812011718750e+01,-9.167206764221191406e+00,-6.393221378326416016e+00,-1.172741413116455078e+01,-1.139256572723388672e+01,-1.865725708007812500e+01,-1.266376113891601562e+01,-1.232551193237304688e+01,-2.178453445434570312e+01
-1.360851764678955078e+01,-1.554912757873535156e+01,-1.374713420867919922e+01,-1.631858825683593750e+01,-1.753404235839843750e+01,-2.061646270751953125e+01,-1.726798248291015625e+01,-1.424101543426513672e+01,-1.180196475982666016e+01,-9.435696601867675781e+00,-1.214619636535644531e+01,-1.357265853881835938e+01,-1.599721813201904297e+01,-1.194186019897460938e+01,-1.351332092285156250e+01,-1.380378150939941406e+01,-1.676641845703125000e+01,-1.615460968017578125e+01,-1.658541107177734375e+01,-1.656598854064941406e+01,-1.945773696899414062e+01,-1.930268859863281250e+01,-2.045762825012207031e+01,-7.862000465393066406e+00,-5.022803306579589844e+00,-2.522072792053222656e+00,-1.410614967346191406e+01,-1.037297058105468750e+01,-7.662745952606201172e+00,-3.915711164474487305e+00,-1.134442615509033203e+01,-2.448092842102050781e+01
5.571830749511718750e+00,7.480025291442871094e+00,6.014192104339599609e+00,4.533977985382080078e+00,5.185197830200195312e+00,3.832018136978149414e+00,5.595521450042724609e+00,1.913095474243164062e+00,2.264906167984008789e+00,4.671116828918457031e+00,8.343280792236328125e+00,7.064419746398925781e+00,3.272412538528442383e+00,3.917649030685424805e+00,2.114223986864089966e-01,4.416947066783905029e-01,1.368167996406555176e+00,1.452896475791931152e+00,-3.308094978332519531e+00,-4.302204251289367676e-01,1.384832739830017090e+00,4.624701499938964844e+00,5.234198093414306641e+00,4.748364448547363281e+00,2.533571958541870117e+00,2.811088085174560547e+00,3.890120267868041992e+00,7.664029121398925781e+00,1.196677684783935547e+01,1.407088756561279297e+01,1.155839538574218750e+01,2.941768407821655273e+00
1.690603494644165039e+00,7.361041069030761719e+00,2.892709732055664062e+00,4.044053077697753906e+00,7.642907619476318359e+00,1.024838161468505859e+01,-9.267812967300415039e-01,-4.886051654815673828e+00,7.669233679771423340e-01,3.486145257949829102e+00,6.926837921142578125e+00,2.351337671279907227e+00,3.447387695312500000e+00,4.137887001037597656e+00,2.938037395477294922e+00,4.006795883178710938e-01,3.979874849319458008e-01,2.540429830551147461e+00,3.812503099441528320e+00,5.438467979431152344e+00,5.408959865570068359e+00,3.414269208908081055e+00,6.104866027832031250e+00,-3.623665809631347656e+00,-3.712875366210937500e+00,-3.734870672225952148e+00,5.557617664337158203e+00,4.044534683227539062e+00,4.001760482788085938e+00,5.560708522796630859e+00,7.606142044067382812e+00,3.850221395492553711e+00
-1.403823280334472656e+01,-1.715704345703125000e+01,-2.197797966003417969e+01,-2.294119453430175781e+01,-1.608740997314453125e+01,-1.328549957275390625e+01,-1.883238601684570312e+01,-1.918317794799804688e+01,-1.465761566162109375e+01,-9.852872848510742188e+00,-1.389005088806152344e+01,-1.327672863006591797e+01,-1.193970108032226562e+01,-1.362076568603515625e+01,-1.627853202819824219e+01,-1.683944892883300781e+01,-1.920842742919921875e+01,-1.649253845214843750e+01,-1.480087757110595703e+01,-1.211125469207763672e+01,-1.282729721069335938e+01,-1.331772994995117188e+01,-9.840985298156738281e+00,-1.427710533142089844e+01,-1.450708198547363281e+01,-1.305310916900634766e+01,-7.756493568420410156e+00,-9.939681053161621094e+00,-8.187595367431640625e+00,-9.299377441406250000e+00,-1.657956123352050781e+01,-2.445001602172851562e+01
-4.318317413330078125e+00,-1.675982666015625000e+01,-1.459441280364990234e+01,-1.792232322692871094e+01,-1.772081947326660156e+01,-1.788702011108398438e+01,-9.029857635498046875e+00,-6.653599262237548828e+00,-1.043967723846435547e+01,-7.796941757202148438e+00,-9.142162322998046875e+00,-2.405077219009399414e+00,-5.532622814178466797e+00,-1.033569431304931641e+01,-1.152042388916015625e+01,-9.546178817749023438e+00,-9.583771705627441406e+00,-9.401456832885742188e+00,-1.180675506591796875e+01,-9.288967132568359375e+00,-7.580292701721191406e+00,-3.949512481689453125e+00,-4.598256349563598633e-01,-3.384586095809936523e+00,-1.290908336639404297e+01,-1.267773437500000000e+01,-3.716358900070190430e+00,-1.497988581657409668e+00,-3.584384679794311523e+00,-6.921315670013427734e+00,-1.188438892364501953e+01,-2.020907783508300781e+01
9.920810699462890625e+00,4.894951879978179932e-01,8.347599029541015625e+00,7.391090869903564453e+00,-4.174384772777557373e-01,-6.196763992309570312e+00,6.750496625900268555e-01,3.795398235321044922e+00,6.612220764160156250e+00,6.385393142700195312e+00,9.796874046325683594e+00,9.871317863464355469e+00,7.413263320922851562e+00,8.169238090515136719e+00,1.170381355285644531e+01,1.216792964935302734e+01,1.263251304626464844e+01,1.185687732696533203e+01,1.089069843292236328e+01,1.069834041595458984e+01,1.156464576721191406e+01,1.135505294799804688e+01,1.044625091552734375e+01,1.001561927795410156e+01,2.471728563308715820e+00,-3.120477497577667236e-01,7.785146713256835938e+00,8.193798065185546875e+00,-2.256231784820556641e+00,-4.800971031188964844e+00,7.626033306121826172e+00,1.370123386383056641e+01
1.391313314437866211e+00,-2.257434368133544922e+00,-2.797164916992187500e-01,-8.052638173103332520e-01,-8.677759170532226562e+00,-5.400359630584716797e+00,-5.176671028137207031e+00,-4.270233631134033203e+00,-1.060403227806091309e+00,5.267929077148437500e+00,7.555061340332031250e+00,3.066287994384765625e+00,2.940803170204162598e-01,3.240763187408447266e+00,8.849778175354003906e+00,8.797268867492675781e+00,6.342163562774658203e+00,4.766914844512939453e+00,5.511814594268798828e+00,7.810974597930908203e+00,7.311203479766845703e+00,4.247513294219970703e+00,-1.035970807075500488e+00,7.091457366943359375e+00,1.401263999938964844e+01,9.789342880249023438e+00,-1.690015792846679688e-01,-3.248133420944213867e+00,-1.163942432403564453e+01,-1.329254436492919922e+01,-5.221409797668457031e-01,1.813056182861328125e+01
-1.310332393646240234e+01,-1.330789566040039062e+01,-1.113726902008056641e+01,-1.193738460540771484e+01,-1.459480953216552734e+01,-9.468407630920410156e+00,-7.354686737060546875e+00,-4.651737689971923828e+00,-9.558271408081054688e+00,-8.001435279846191406e+00,-1.106653118133544922e+01,-8.901671409606933594e+00,-1.111011219024658203e+01,-1.056702327728271484e+01,-7.798119068145751953e+00,-7.685180187225341797e+00,-1.125459575653076172e+01,-1.141748619079589844e+01,-1.108124828338623047e+01,-1.032457351684570312e+01,-1.172726917266845703e+01,-1.237900733947753906e+01,-1.429758739471435547e+01,-8.393393516540527344e+00,1.195925116539001465e+00,-7.334930300712585449e-01,-1.350325870513916016e+01,-1.493426513671875000e+01,-1.547488689422607422e+01,-1.766021919250488281e+01,-1.842938804626464844e+01,-6.245568752288818359e+00
-1.280596160888671875e+01,-8.998476028442382812e+00,2.057451963424682617e+00,3.958024978637695312e+00,1.445254921913146973e+00,-1.143665218353271484e+01,-2.443723201751708984e+00,4.958032608032226562e+00,8.059818267822265625e+00,-6.990847110748291016e+00,-1.406236743927001953e+01,-1.467612552642822266e+01,-1.013123321533203125e+01,-9.263770103454589844e+00,-6.547146797180175781e+00,-9.489987373352050781e+00,-1.301345539093017578e+01,-1.092346000671386719e+01,-7.740602970123291016e+00,-1.326550006866455078e+01,-1.679333305358886719e+01,-1.808952522277832031e+01,-1.649570083618164062e+01,-9.922536849975585938e+00,-5.527462959289550781e+00,-7.630000591278076172e+00,-1.552208900451660156e+01,-1.539243316650390625e+01,-1.039384746551513672e+01,-8.620989799499511719e+00,-1.252153682708740234e+01,-1.660286521911621094e+01
-1.482701301574707031e+00,3.333979845046997070e+00,6.420662879943847656e+00,1.012266921997070312e+01,1.128879642486572266e+01,1.442500710487365723e+00,1.239635848999023438e+01,1.420885372161865234e+01,1.043765544891357422e+01,8.184457421302795410e-01,2.825258016586303711e+00,4.885152578353881836e-01,7.210438847541809082e-01,9.960532188415527344e-01,1.130595564842224121e+00,-2.191426038742065430e+00,-4.133476257324218750e+00,-3.542766094207763672e+00,-3.129244327545166016e+00,-6.844622135162353516e+00,-8.861238479614257812e+00,-8.565994262695312500e+00,-8.588814735412597656e+00,-4.024093627929687500e+00,-6.056197166442871094e+00,-5.876125335693359375e+00,-8.155407905578613281e+00,-7.195219039916992188e+00,3.720004558563232422e-01,6.605828285217285156e+00,4.174820899963378906e+00,-8.297212600708007812e+00
1.142691612243652344e+01,9.787724494934082031e+00,-3.920026779174804688e+00,-1.228524208068847656e+00,7.635989189147949219e+00,2.106376647949218750e+01,2.185096549987792969e+01,1.395355892181396484e+01,-3.703558444976806641e+00,1.645746827125549316e+00,1.432624912261962891e+01,2.407583427429199219e+01,1.512309741973876953e+01,9.396925926208496094e+00,6.186924457550048828e+00,6.529376983642578125e+00,8.080086708068847656e+00,4.175755977630615234e+00,-2.939666271209716797e+00,-3.570267677307128906e+00,-1.390125513076782227e+00,4.990041732788085938e+00,4.954213142395019531e+00,2.576020002365112305e+00,-4.972574710845947266e+00,-2.733726978302001953e+00,-9.699975252151489258e-01,4.192115783691406250e+00,1.075627994537353516e+01,1.078829765319824219e+01,7.277590751647949219e+00,2.375040292739868164e+00
1.953945159912109375e+01,1.088376617431640625e+01,5.653116703033447266e-01,4.041714191436767578e+00,1.001555156707763672e+01,2.205784416198730469e+01,1.358115100860595703e+01,6.952320098876953125e+00,4.678639888763427734e+00,9.719113349914550781e+00,1.251103019714355469e+01,1.981830406188964844e+01,1.718001174926757812e+01,9.948478698730468750e+00,1.084952354431152344e+01,1.331468105316162109e+01,1.574594783782958984e+01,1.036847972869873047e+01,5.959952831268310547e+00,5.052512645721435547e+00,4.993075370788574219e+00,8.693955421447753906e+00,1.235761737823486328e+01,1.208883857727050781e+01,6.987672328948974609e+00,5.202572822570800781e+00,6.043463230133056641e+00,1.167776107788085938e+01,1.498554420471191406e+01,4.481832027435302734e+00,3.119070768356323242e+00,1.127406215667724609e+01
1.133288478851318359e+01,9.456865310668945312e+00,9.166151046752929688e+00,1.302505111694335938e+01,1.294648933410644531e+01,8.214660644531250000e+00,2.601593494415283203e+00,1.970058917999267578e+00,1.014543437957763672e+01,1.396793079376220703e+01,9.177837371826171875e+00,1.527230978012084961e+00,4.355918884277343750e+00,3.941108226776123047e+00,7.351528167724609375e+00,7.849426269531250000e+00,7.098146915435791016e+00,4.381916046142578125e+00,5.122127056121826172e+00,7.234785079956054688e+00,4.917470455169677734e+00,4.138588905334472656e+00,8.274109840393066406e+00,4.356827259063720703e+00,5.449937343597412109e+00,2.344819545745849609e+00,6.865746021270751953e+00,9.805576324462890625e+00,1.571999645233154297e+01,6.079178810119628906e+00,1.299822807312011719e+00,5.166629314422607422e+00
1.127062916755676270e+00,5.522578716278076172e+00,1.097338914871215820e+00,3.590767621994018555e+00,7.124707698822021484e+00,6.456206798553466797e+00,5.237836360931396484e+00,2.555422306060791016e+00,-1.703737020492553711e+00,3.074795484542846680e+00,6.548048496246337891e+00,4.080675125122070312e+00,-1.982649445533752441e+00,-1.031545519828796387e+00,-1.682557344436645508e+00,-1.808947473764419556e-01,-4.618190824985504150e-01,-3.195710480213165283e-01,-3.269128084182739258e+00,-1.246484398841857910e+00,1.124126911163330078e-01,4.233983993530273438e+00,7.057209491729736328e+00,-7.060628890991210938e+00,-9.714776039123535156e+00,-1.041974925994873047e+01,5.497451424598693848e-01,4.866868972778320312e+00,1.107290363311767578e+01,7.412851810455322266e+00,-1.826732039451599121e+00,-1.036900424957275391e+01
6.827093601226806641e+00,4.322072505950927734e+00,-1.697224855422973633e+00,-5.751787424087524414e-01,3.004003763198852539e+00,1.046317672729492188e+01,8.329755783081054688e+00,4.311444282531738281e+00,-6.006813526153564453e+00,-4.690834522247314453e+00,2.101740837097167969e-01,9.257108688354492188e+00,3.800796270370483398e+00,-2.445779323577880859e+00,-4.595661640167236328e+00,2.017649888992309570e+00,6.276387214660644531e+00,7.323019027709960938e+00,3.893122673034667969e+00,2.672375440597534180e+00,4.498538017272949219e+00,7.324872970581054688e+00,8.646450996398925781e+00,4.940830707550048828e+00,-3.515427350997924805e+00,-6.889725685119628906e+00,-4.024540424346923828e+00,6.846806406974792480e-01,-5.379664301872253418e-01,-1.865056753158569336e+00,-6.411972999572753906e+00,-4.790759086608886719e+00
8.010625839233398438e+00,6.741051197052001953e+00,8.758087158203125000e+00,9.655074119567871094e+00,4.035223007202148438e+00,4.797559261322021484e+00,5.848859786987304688e+00,7.642741203308105469e+00,5.765285968780517578e+00,-3.811383843421936035e-01,-2.217070102691650391e+00,2.977207601070404053e-01,4.045449256896972656e+00,-9.580962657928466797e-01,-1.251059293746948242e+00,2.606771707534790039e+00,5.395203590393066406e+00,7.679718017578125000e+00,8.330430984497070312e+00,9.980320930480957031e+00,8.852867126464843750e+00,5.336301803588867188e+00,2.647828102111816406e+00,1.350248336791992188e+01,1.219532871246337891e+01,6.810612201690673828e+00,-3.518142700195312500e+00,-1.586965560913085938e+00,-3.140140295028686523e+00,-6.652591228485107422e+00,-1.031253433227539062e+01,8.493875503540039062e+00
9.251094818115234375e+00,9.596036911010742188e+00,1.061250495910644531e+01,1.302959632873535156e+01,1.007246208190917969e+01,9.286832809448242188e+00,1.084428119659423828e+01,1.187618732452392578e+01,1.109056949615478516e+01,6.959255695343017578e+00,8.175801277160644531e+00,4.613798618316650391e+00,4.326355457305908203e+00,6.156653881072998047e+00,6.182033061981201172e+00,7.426947355270385742e-01,-1.598946571350097656e+00,1.087366700172424316e+00,1.093705296516418457e+00,4.858207225799560547e+00,4.534906864166259766e+00,4.903085231781005859e+00,2.218263864517211914e+00,1.169497394561767578e+01,1.410065460205078125e+01,1.309888553619384766e+01,4.829789638519287109e+00,8.460010528564453125e+00,9.561349868774414062e+00,3.611685276031494141e+00,-4.090310096740722656e+00,4.812427043914794922e+00
8.076391220092773438e+00,-1.469461917877197266e+00,-4.464725971221923828e+00,-1.349850416183471680e+00,3.714393615722656250e+00,4.335575580596923828e+00,1.860244154930114746e+00,4.372833669185638428e-01,4.612649977207183838e-02,3.230408906936645508e+00,4.756859302520751953e+00,4.511327266693115234e+00,1.795897483825683594e+00,3.449633836746215820e+00,4.533744335174560547e+00,2.498006075620651245e-01,-3.385088443756103516e+00,-4.041280269622802734e+00,-4.909696578979492188e+00,-1.369653224945068359e+00,1.992548108100891113e-01,1.307987928390502930e+00,3.036958217620849609e+00,1.095528364181518555e+00,-3.717014551162719727e+00,-1.010500311851501465e+00,7.030347347259521484e+00,9.663529396057128906e+00,9.814474105834960938e+00,5.661782741546630859e+00,-1.089980006217956543e+00,-8.479169845581054688e+00
-6.989570617675781250e+00,-1.674455261230468750e+01,-1.541316699981689453e+01,-1.464660263061523438e+01,-1.207577705383300781e+01,-1.598032760620117188e+01,-1.695901870727539062e+01,-1.286308002471923828e+01,-6.948073863983154297e+00,-2.148213386535644531e+00,-1.042796611785888672e+01,-1.509617233276367188e+01,-1.153973388671875000e+01,-9.991837501525878906e+00,-7.566350460052490234e+00,-5.964467048645019531e+00,-7.579424858093261719e+00,-8.630070686340332031e+00,-7.174993038177490234e+00,-3.600585699081420898e+00,-3.695686817169189453e+00,-8.501639366149902344e+00,-9.403724670410156250e+00,-7.452847480773925781e+00,-5.865198135375976562e+00,-7.853869438171386719e+00,-8.098708152770996094e+00,-9.452518463134765625e+00,-9.366299629211425781e+00,-1.055539989471435547e+01,-1.154718017578125000e+01,-1.310237503051757812e+01
-1.119955539703369141e+01,-7.098153114318847656e+00,-6.003382682800292969e+00,-7.415872573852539062e+00,-7.030631542205810547e+00,-7.467955589294433594e+00,-7.101047039031982422e+00,-4.011708259582519531e+00,-7.638246059417724609e+00,-5.211564540863037109e+00,-1.008466911315917969e+01,-1.239927864074707031e+01,-8.174889564514160156e+00,-8.636035919189453125e+00,-8.243111610412597656e+00,-5.186744213104248047e+00,-2.637629032135009766e+00,-6.533905863761901855e-01,-2.384586095809936523e+00,-5.721340656280517578e+00,-7.249695301055908203e+00,-5.830924510955810547e+00,-5.920341968536376953e+00,-6.740471363067626953e+00,-1.999897360801696777e+00,-4.324030399322509766e+00,-9.480849266052246094e+00,-8.823918342590332031e+00,-1.056326103210449219e+01,-9.453922271728515625e+00,-5.620251655578613281e+00,-6.948669433593750000e+00
-1.010743618011474609e+00,7.420187950134277344e+00,1.028320312500000000e+01,6.609502792358398438e+00,1.416049361228942871e+00,8.271672725677490234e-01,2.536807060241699219e-01,2.859305620193481445e+00,-4.455732405185699463e-01,-2.307123184204101562e+00,-4.167963027954101562e+00,-8.306364417076110840e-01,5.441316962242126465e-01,-2.001304149627685547e+00,-7.146652340888977051e-01,1.324054718017578125e+00,4.748017311096191406e+00,6.489015102386474609e+00,3.984971046447753906e+00,-1.491924643516540527e+00,-5.928691625595092773e-01,4.909854412078857422e+00,7.703590393066406250e+00,3.649292230606079102e+00,-1.672099113464355469e+00,5.298609733581542969e-01,3.229682207107543945e+00,5.030340671539306641e+00,6.000596880912780762e-01,5.326781749725341797e+00,1.307383251190185547e+01,7.428259372711181641e+00
1.665269088745117188e+01,1.311117267608642578e+01,1.364116096496582031e+01,1.352591133117675781e+01,1.402116870880126953e+01,1.720003128051757812e+01,1.392113685607910156e+01,1.133583259582519531e+01,7.300770759582519531e+00,8.190281867980957031e+00,1.094460487365722656e+01,1.349759960174560547e+01,1.126919555664062500e+01,8.842689514160156250e+00,1.224960327148437500e+01,1.370396423339843750e+01,1.763560676574707031e+01,1.651174545288085938e+01,1.358587360382080078e+01,1.494557285308837891e+01,1.872715759277343750e+01,1.987562561035156250e+01,2.052069664001464844e+01,1.594212055206298828e+01,2.828515768051147461e+00,7.100534915924072266e+00,1.763643646240234375e+01,1.943750572204589844e+01,1.663359832763671875e+01,1.421541023254394531e+01,1.519199371337890625e+01,2.042938804626464844e+01
1.990068817138671875e+01,8.194818496704101562e+00,8.653405904769897461e-01,1.739550948143005371e+00,1.187662982940673828e+01,1.794481658935546875e+01,1.621900367736816406e+01,1.182588768005371094e+01,2.991751432418823242e+00,2.120410203933715820e+00,8.955121994018554688e+00,1.360854244232177734e+01,1.491335487365722656e+01,1.243332099914550781e+01,1.622347259521484375e+01,1.782877159118652344e+01,2.102652740478515625e+01,2.015679550170898438e+01,1.589584636688232422e+01,1.688384056091308594e+01,2.120242500305175781e+01,2.272349739074707031e+01,2.390659523010253906e+01,1.098100090026855469e+01,6.277602195739746094e+00,4.053745269775390625e+00,1.513696002960205078e+01,1.808210182189941406e+01,1.739986991882324219e+01,9.603543281555175781e+00,4.290623188018798828e+00,9.724541664123535156e+00
-4.595402717590332031e+00,-3.728071451187133789e+00,-7.209606170654296875e-01,-2.887261867523193359e+00,-3.710448980331420898e+00,-3.738835334777832031e+00,-6.558183670043945312e+00,-3.517795801162719727e+00,-4.132527828216552734e+00,-3.168153524398803711e+00,-4.722036838531494141e+00,-4.663442611694335938e+00,-4.067833423614501953e+00,-4.201935291290283203e+00,-2.283813714981079102e+00,-1.524052262306213379e+00,1.154394149780273438e+00,2.062833786010742188e+00,4.243199825286865234e-01,-2.006118535995483398e+00,-4.087190330028533936e-01,2.029457092285156250e+00,3.844180583953857422e+00,-5.199714303016662598e-01,9.186261177062988281e+00,6.177991390228271484e+00,3.048758506774902344e+00,2.488383054733276367e+00,-3.000941514968872070e+00,1.146384254097938538e-01,5.923072338104248047e+00,2.446065187454223633e+00
